timestamps,TP9,AF7,AF8,TP10,Right AUX,Secondary Timestamp
1652668542.929,-92.773,-75.195,-55.176,-99.609,-74.219,26703.834
1652668542.933,-184.082,146.973,-52.734,-171.387,-228.027,26703.838
1652668542.937,-143.555,133.301,-41.504,-131.836,-257.324,26703.842
1652668542.941,-84.961,-10.254,-48.340,-95.703,-126.953,26703.846
1652668542.945,-140.625,-27.344,-40.039,-152.344,-57.129,26703.850
1652668542.949,-233.887,-127.441,-43.945,-215.820,-71.289,26703.854
1652668542.953,-232.910,-207.031,-43.945,-205.078,-125.000,26703.858
1652668542.956,-153.320,-559.570,-23.438,-148.438,113.281,26703.862
1652668542.960,-147.461,-981.934,-13.184,-151.855,416.016,26703.866
1652668542.964,-230.957,-239.258,-17.578,-215.820,58.105,26703.869
1652668542.968,-240.723,111.816,-38.086,-212.891,-209.961,26703.873
1652668542.972,-184.570,-224.609,-59.082,-173.828,-32.715,26703.877
1652668542.972,-184.570,-224.609,-59.082,-173.828,-32.715,26703.877
1652668542.974,-150.391,92.773,-39.062,-171.387,5.371,26703.893
1652668542.978,-194.336,422.363,-6.836,-202.148,-141.602,26703.897
1652668542.982,-217.285,97.168,-10.254,-188.477,-228.027,26703.901
1652668542.986,-147.949,-50.293,-23.926,-131.348,-145.508,26703.905
1652668542.990,-94.727,253.906,-55.664,-113.281,-41.504,26703.909
1652668542.994,-149.414,132.324,-74.219,-152.344,-51.270,26703.913
1652668542.998,-183.105,-188.477,-61.523,-158.203,-37.109,26703.917
1652668543.001,-113.770,-702.637,-49.805,-94.727,118.652,26703.921
1652668543.005,-17.090,-270.020,-37.598,-38.086,64.941,26703.924
1652668543.009,-23.926,449.707,-28.809,-51.758,-101.562,26703.928
1652668543.013,-94.238,88.379,-49.805,-80.078,-102.539,26703.932
1652668543.017,-64.453,-48.828,-43.457,-32.715,-105.469,26703.936
1652668543.020,19.531,278.809,-37.598,12.207,-118.652,26703.926
1652668543.024,30.762,227.539,-39.551,-1.953,-56.641,26703.930
1652668543.028,-43.945,-358.398,-32.227,-26.855,55.664,26703.934
1652668543.032,-55.176,-363.281,-44.434,-13.184,-35.156,26703.938
1652668543.036,39.551,232.910,-35.156,46.875,-101.074,26703.942
1652668543.040,104.492,70.312,-15.137,89.844,56.641,26703.946
1652668543.044,31.250,-363.770,-28.320,39.062,80.566,26703.950
1652668543.047,-23.926,-378.906,-51.758,0.000,-10.742,26703.954
1652668543.051,45.410,1.953,-47.363,53.711,-25.879,26703.957
1652668543.055,125.488,414.551,-44.434,103.027,-32.227,26703.961
1652668543.059,102.539,-291.016,-35.156,91.797,109.863,26703.965
1652668543.063,38.574,-860.840,-41.992,57.129,200.684,26703.969
1652668543.064,51.270,62.988,-53.711,58.594,-36.133,26703.997
1652668543.068,109.863,318.359,-45.898,92.773,-87.891,26704.001
1652668543.072,85.449,94.727,-37.109,66.895,-37.598,26704.005
1652668543.076,11.719,223.633,-30.762,19.043,-101.074,26704.009
1652668543.080,11.719,110.840,-38.574,31.738,-144.531,26704.013
1652668543.084,81.055,-37.598,-52.246,78.613,-40.527,26704.017
1652668543.088,85.938,-666.992,-59.082,71.777,355.469,26704.021
1652668543.091,2.930,-744.141,-52.246,14.160,308.594,26704.025
1652668543.095,-19.043,157.227,-48.340,1.953,-147.461,26704.029
1652668543.099,48.828,108.887,-56.152,57.129,-126.465,26704.032
1652668543.103,98.145,94.238,-60.547,89.844,-20.996,26704.036
1652668543.107,29.785,384.766,-65.430,30.273,-78.613,26704.040
1652668543.109,-27.344,379.395,-60.059,-1.953,-185.059,26704.029
1652668543.113,24.414,-82.031,-47.363,49.316,-79.102,26704.033
1652668543.117,85.449,-151.855,-53.711,83.496,35.156,26704.037
1652668543.121,46.875,369.141,-44.434,42.480,-42.480,26704.041
1652668543.125,-8.301,304.199,-28.809,15.137,-149.414,26704.045
1652668543.129,-5.859,-314.941,-55.176,31.250,-33.203,26704.049
1652668543.133,58.594,-475.098,-74.219,61.035,130.371,26704.053
1652668543.136,52.734,-83.496,-79.102,40.039,51.758,26704.056
1652668543.140,-39.551,-126.953,-52.734,-18.066,-55.664,26704.060
1652668543.144,-37.109,-307.129,-18.066,-1.465,-60.547,26704.064
1652668543.148,38.086,33.691,-31.250,48.340,-45.898,26704.068
1652668543.152,52.246,289.062,-71.777,35.645,-61.035,26704.072
1652668543.184,-34.668,69.336,-85.449,-35.645,-142.578,26704.102
1652668543.188,-62.500,-597.656,-49.805,-41.992,12.207,26704.106
1652668543.192,17.090,-756.348,-32.227,21.484,184.570,26704.110
1652668543.196,61.523,234.863,-62.500,35.156,-29.297,26704.114
1652668543.200,-0.488,248.047,-64.453,-12.207,-47.852,26704.118
1652668543.204,-66.406,-299.316,-60.547,-41.016,19.043,26704.122
1652668543.208,-30.273,-223.633,-69.336,-6.348,-5.371,26704.126
1652668543.211,52.734,267.578,-54.199,44.434,-47.363,26704.130
1652668543.215,28.320,202.637,-35.156,21.484,-36.621,26704.134
1652668543.219,-55.664,-467.285,-38.086,-28.809,31.738,26704.138
1652668543.223,-64.941,-289.062,-58.105,-42.480,-41.016,26704.141
1652668543.227,20.508,217.773,-51.758,16.602,-81.055,26704.145
1652668543.204,40.527,-1.465,-42.480,34.668,-7.812,26704.119
1652668543.208,-59.082,-229.980,-54.199,-44.434,-3.906,26704.123
1652668543.212,-78.125,219.727,-54.199,-51.270,-136.719,26704.127
1652668543.216,19.531,336.914,-47.852,24.414,-104.492,26704.131
1652668543.220,69.824,160.156,-48.828,43.457,3.418,26704.134
1652668543.224,-22.949,-87.891,-45.410,-26.367,-8.301,26704.138
1652668543.228,-89.355,-138.184,-47.363,-62.988,-117.188,26704.142
1652668543.231,-30.762,-180.664,-60.547,-16.602,-84.961,26704.146
1652668543.235,28.809,-210.449,-89.355,11.230,80.566,26704.150
1652668543.239,-26.855,84.961,-90.820,-35.645,29.785,26704.154
1652668543.243,-76.660,318.848,-53.223,-44.434,-139.648,26704.158
1652668543.247,-39.062,298.828,-39.551,-8.789,-117.676,26704.162
1652668543.260,22.949,-235.840,-41.504,20.020,101.562,26704.165
1652668543.264,7.324,-403.809,-36.621,1.465,136.230,26704.169
1652668543.268,-63.965,70.312,-50.781,-47.363,-25.879,26704.173
1652668543.272,-67.871,244.141,-69.824,-46.875,-151.855,26704.177
1652668543.276,4.395,-482.422,-68.848,6.348,164.551,26704.181
1652668543.280,24.902,-897.461,-67.383,10.254,375.488,26704.185
1652668543.284,-53.711,-187.012,-52.246,-49.805,23.926,26704.189
1652668543.287,-88.867,-103.027,-41.992,-54.688,-120.117,26704.193
1652668543.291,-21.484,-456.543,-55.176,0.000,34.668,26704.197
1652668543.295,30.762,83.984,-60.059,19.531,22.461,26704.200
1652668543.299,-37.109,458.496,-52.734,-27.344,-184.570,26704.204
1652668543.303,-77.148,43.945,-55.664,-43.945,-184.082,26704.208
1652668543.304,-18.555,66.406,-53.223,-4.395,-104.980,26704.209
1652668543.308,54.688,400.391,-36.621,36.133,-109.863,26704.213
1652668543.312,5.371,393.066,-38.086,-15.625,-124.023,26704.217
1652668543.316,-98.145,55.664,-72.754,-92.285,-116.699,26704.221
1652668543.320,-74.707,-107.422,-75.195,-64.453,-48.340,26704.225
1652668543.324,17.578,-18.066,-36.133,3.418,26.855,26704.229
1652668543.328,-1.465,15.137,-37.598,-25.879,-8.301,26704.233
1652668543.331,-95.703,-403.320,-64.453,-78.125,110.352,26704.237
1652668543.335,-98.633,-1000.000,-60.547,-56.152,360.352,26704.241
1652668543.339,-20.020,-548.828,-44.922,-13.184,194.336,26704.245
1652668543.343,11.230,307.129,-42.969,-6.836,-44.922,26704.248
1652668543.347,-65.430,167.480,-58.594,-57.129,-63.477,26704.252
1652668543.349,-96.191,201.172,-61.523,-63.965,-112.305,26704.254
1652668543.353,-8.789,404.297,-40.527,3.906,-97.656,26704.258
1652668543.357,39.062,278.320,-29.785,23.926,-22.949,26704.262
1652668543.361,-49.805,112.793,-57.129,-50.781,-24.414,26704.266
1652668543.365,-109.375,176.270,-74.707,-88.379,-93.750,26704.270
1652668543.369,-69.336,45.410,-50.293,-57.129,-101.074,26704.274
1652668543.373,1.953,-109.863,-45.898,-12.695,31.738,26704.278
1652668543.376,-29.297,-657.227,-82.520,-37.109,226.074,26704.282
1652668543.380,-94.727,-481.445,-73.730,-80.566,39.551,26704.286
1652668543.384,-77.148,303.711,-61.035,-63.965,-227.539,26704.290
1652668543.388,0.488,52.734,-62.500,-3.418,-68.359,26704.293
1652668543.392,7.324,-249.023,-54.688,2.441,25.879,26704.297
1652668543.394,-77.148,167.480,-50.293,-59.570,-147.949,26704.314
1652668543.398,-92.285,312.012,-57.129,-65.430,-194.336,26704.318
1652668543.402,-0.488,65.430,-48.828,-1.465,-88.379,26704.321
1652668543.406,50.781,164.551,-39.062,28.809,14.160,26704.325
1652668543.410,-49.805,304.199,-56.641,-36.133,-66.406,26704.329
1652668543.414,-97.656,19.043,-67.871,-59.570,-131.836,26704.333
1652668543.418,-31.250,-540.039,-80.566,-8.789,145.508,26704.337
1652668543.421,18.066,-778.320,-74.219,16.113,295.410,26704.341
1652668543.425,-33.203,-99.121,-58.594,-35.645,21.973,26704.345
1652668543.429,-88.867,280.273,-59.570,-64.941,-205.078,26704.349
1652668543.433,-42.480,-452.637,-53.711,-20.020,-3.418,26704.353
1652668543.437,40.039,-497.070,-55.176,29.785,149.902,26704.357
1652668543.439,8.789,416.016,-64.453,-9.277,-62.012,26704.357
1652668543.443,-83.496,283.203,-49.805,-66.406,-138.184,26704.361
1652668543.447,-72.754,-69.336,-62.988,-39.551,-105.469,26704.365
1652668543.451,16.602,183.105,-76.660,26.855,-53.711,26704.369
1652668543.455,15.137,405.762,-56.641,13.184,-80.078,26704.373
1652668543.459,-64.453,-28.809,-39.062,-46.875,-23.438,26704.377
1652668543.463,-80.078,-405.762,-25.879,-45.410,9.277,26704.381
1652668543.466,3.906,-51.270,-22.949,14.648,-101.074,26704.384
1652668543.470,50.781,379.883,-37.109,35.156,-140.137,26704.388
1652668543.474,-52.246,49.805,-60.059,-48.828,-102.051,26704.392
1652668543.478,-102.051,-593.750,-58.105,-73.730,-17.578,26704.396
1652668543.482,-37.598,-124.023,-53.711,-21.973,-105.957,26704.400
1652668543.500,31.738,404.785,-67.383,15.137,-132.324,26704.405
1652668543.504,-6.836,-54.199,-58.105,-5.859,-22.461,26704.409
1652668543.508,-104.980,-229.492,-62.012,-70.801,-47.363,26704.413
1652668543.512,-100.098,185.547,-77.148,-72.754,-145.020,26704.417
1652668543.516,-5.859,367.188,-50.293,-3.418,-122.559,26704.421
1652668543.520,1.465,-310.059,-34.668,-0.488,135.254,26704.425
1652668543.524,-81.055,-796.387,-46.387,-53.711,212.891,26704.429
1652668543.527,-97.168,-266.602,-39.551,-62.012,-9.277,26704.432
1652668543.531,-20.508,36.133,-38.574,-17.578,-75.684,26704.436
1652668543.535,17.090,-424.316,-35.645,8.301,71.777,26704.440
1652668543.539,-66.406,-662.598,-40.039,-47.852,146.484,26704.444
1652668543.543,-111.816,149.414,-60.059,-79.102,-113.770,26704.448
1652668543.544,-30.762,239.746,-53.223,-17.090,-168.945,26704.449
1652668543.548,29.297,84.473,-44.434,16.113,-66.895,26704.453
1652668543.552,-37.109,209.961,-41.992,-34.180,-104.004,26704.457
1652668543.556,-100.586,240.723,-61.035,-70.801,-211.426,26704.461
1652668543.560,-46.875,2.441,-57.129,-29.297,-168.457,26704.465
1652668543.564,22.461,-241.699,-46.387,19.043,22.949,26704.469
1652668543.568,-20.996,-229.492,-50.781,-16.602,65.430,26704.473
1652668543.571,-74.219,-7.812,-45.898,-56.152,-60.059,26704.476
1652668543.575,-39.062,1.953,-44.434,-22.461,-103.516,26704.480
1652668543.579,16.602,-770.996,-50.293,17.578,190.918,26704.484
1652668543.583,-5.371,-373.535,-48.828,-16.113,165.527,26704.488
1652668543.587,-93.750,285.645,-50.293,-80.078,-132.812,26704.492
1652668543.589,-105.957,-137.695,-75.684,-83.496,-103.516,26704.495
1652668543.593,-3.418,-56.641,-44.922,-5.859,-71.777,26704.499
1652668543.597,50.781,299.316,-0.977,28.320,-68.848,26704.502
1652668543.601,-63.477,322.754,-41.504,-60.547,-82.031,26704.506
1652668543.605,-128.906,-38.574,-62.988,-97.656,-98.145,26704.510
1652668543.609,-56.641,-270.020,-62.988,-45.898,-18.555,26704.514
1652668543.613,7.324,-163.574,-66.895,-6.836,16.113,26704.518
1652668543.616,-34.180,-175.293,-43.945,-33.691,-82.031,26704.522
1652668543.620,-93.262,-526.855,-43.457,-65.918,77.148,26704.526
1652668543.624,-59.570,-1000.000,-51.270,-21.484,393.555,26704.530
1652668543.628,28.320,-514.160,-41.504,30.273,183.594,26704.534
1652668543.632,-3.906,233.398,-39.062,-18.555,-100.586,26704.538
1652668543.634,-89.844,43.945,-33.691,-72.754,-114.746,26704.539
1652668543.638,-77.148,186.523,-41.016,-56.641,-113.770,26704.543
1652668543.642,-2.930,421.875,-59.570,-13.184,-102.539,26704.547
1652668543.646,11.230,287.598,-51.270,-6.836,-79.590,26704.551
1652668543.650,-81.055,-76.660,-56.152,-66.406,-143.066,26704.555
1652668543.654,-104.004,-189.453,-72.266,-70.801,-167.480,26704.559
1652668543.658,-15.137,-52.246,-75.195,-6.348,-58.105,26704.563
1652668543.661,26.367,-35.156,-71.289,17.090,28.809,26704.567
1652668543.665,-51.270,-598.633,-62.988,-41.016,136.719,26704.571
1652668543.669,-91.309,-303.711,-43.945,-62.988,18.066,26704.574
1652668543.673,-41.504,262.207,-34.668,-11.719,-64.453,26704.578
1652668543.677,16.602,-145.020,-38.574,25.391,122.070,26704.582
1652668543.679,-9.766,-201.660,-34.180,-5.859,121.094,26704.584
1652668543.683,-89.844,282.227,-56.152,-62.500,-59.082,26704.588
1652668543.687,-74.707,330.078,-62.500,-48.828,-92.773,26704.592
1652668543.691,15.625,72.266,-53.223,7.812,-8.301,26704.596
1652668543.695,3.418,138.672,-58.105,-10.254,32.715,26704.600
1652668543.699,-85.938,67.871,-57.617,-63.477,18.555,26704.604
1652668543.703,-96.680,-101.562,-56.152,-63.477,-27.344,26704.608
1652668543.706,-21.484,-408.203,-49.316,-16.113,176.270,26704.611
1652668543.710,4.395,-1000.000,-46.875,-0.977,468.750,26704.615
1652668543.714,-59.570,-427.246,-34.180,-49.805,170.898,26704.619
1652668543.718,-71.289,270.508,-25.391,-47.852,-133.789,26704.623
1652668543.722,7.324,102.539,-40.039,12.695,-73.730,26704.627
1652668543.725,38.574,297.852,-51.270,12.207,-36.621,26704.631
1652668543.729,-36.621,278.320,-43.457,-51.758,-53.711,26704.635
1652668543.733,-79.590,-84.473,-42.969,-68.359,-92.773,26704.639
1652668543.737,-37.598,-194.824,-55.664,-35.645,-41.504,26704.643
1652668543.741,42.480,118.164,-57.129,16.113,-9.766,26704.647
1652668543.745,3.418,88.379,-58.105,-12.695,-48.340,26704.651
1652668543.749,-67.383,-237.793,-44.922,-59.570,-31.738,26704.654
1652668543.752,-39.551,-660.645,-36.621,-25.391,125.000,26704.658
1652668543.756,25.879,-235.352,-43.457,17.578,91.797,26704.662
1652668543.760,18.555,479.492,-50.293,0.488,-90.820,26704.666
1652668543.764,-64.453,75.195,-57.129,-55.664,-120.117,26704.670
1652668543.768,-79.102,-117.676,-53.223,-54.199,-136.719,26704.674
1652668543.769,8.301,274.414,-50.781,9.766,-123.535,26704.686
1652668543.773,44.434,390.625,-45.898,23.926,-94.727,26704.690
1652668543.777,-37.598,51.270,-45.898,-32.715,-76.660,26704.694
1652668543.781,-73.730,-41.016,-38.086,-41.992,-104.492,26704.698
1652668543.785,-18.555,53.711,-31.738,-1.953,-138.184,26704.702
1652668543.789,35.645,-5.859,-39.551,23.926,-33.691,26704.706
1652668543.793,-17.090,-458.008,-37.109,-10.254,164.551,26704.710
1652668543.796,-90.332,-976.562,-62.500,-58.594,236.328,26704.714
1652668543.800,-64.453,-532.715,-68.848,-41.992,28.320,26704.718
1652668543.804,28.809,83.008,-53.711,13.672,-112.305,26704.721
1652668543.808,10.742,-234.863,-46.387,-3.906,6.836,26704.725
1652668543.812,-87.891,-314.453,-58.105,-64.941,-32.227,26704.729
1652668543.814,-86.914,263.672,-83.008,-58.594,-221.191,26704.734
1652668543.818,12.207,200.195,-70.312,5.371,-143.555,26704.738
1652668543.822,20.508,30.762,-59.082,7.324,-31.250,26704.741
1652668543.826,-69.824,171.387,-52.734,-52.734,-92.773,26704.745
1652668543.830,-90.820,227.051,-41.504,-62.988,-165.039,26704.749
1652668543.834,-26.367,-76.660,-55.664,-13.184,-38.574,26704.753
1652668543.838,10.742,-605.469,-50.293,8.789,145.020,26704.757
1652668543.841,-66.895,-483.398,-32.227,-50.293,22.461,26704.761
1652668543.845,-110.352,38.086,-53.223,-71.289,-174.316,26704.765
1652668543.849,-22.949,-61.035,-50.781,-1.953,-76.172,26704.769
1652668543.853,44.434,-371.582,-43.457,30.762,94.238,26704.773
1652668543.857,-44.922,51.758,-63.965,-55.664,-30.762,26704.777
1652668543.859,-105.469,207.031,-52.734,-91.797,-198.730,26704.779
1652668543.863,-45.410,-81.543,-54.688,-30.762,-135.742,26704.783
1652668543.867,25.879,-6.836,-66.406,14.160,-27.344,26704.787
1652668543.871,-18.066,275.391,-71.289,-35.156,-61.035,26704.791
1652668543.875,-104.004,186.523,-83.984,-90.332,-131.348,26704.795
1652668543.879,-76.660,-277.344,-69.824,-57.129,-52.734,26704.798
1652668543.883,10.742,-388.672,-53.711,1.465,18.066,26704.802
1652668543.886,10.254,-181.641,-54.688,-4.395,-13.184,26704.806
1652668543.890,-66.895,-143.066,-49.316,-49.805,-139.648,26704.810
1652668543.894,-78.613,-554.199,-46.875,-47.852,-52.246,26704.814
1652668543.898,-2.930,-930.664,-20.996,9.277,240.234,26704.818
1652668543.902,18.066,-137.695,-37.109,5.859,72.754,26704.822
1652668543.919,-74.707,267.578,-66.406,-66.895,-138.672,26704.824
1652668543.923,-113.770,-151.367,-68.848,-82.031,-73.242,26704.828
1652668543.927,-55.664,9.277,-90.820,-43.457,-22.949,26704.832
1652668543.931,12.207,414.062,-81.543,2.930,-46.387,26704.836
1652668543.935,-21.484,254.883,-41.992,-16.113,-39.551,26704.840
1652668543.939,-88.379,-239.746,-35.645,-60.547,-20.508,26704.844
1652668543.943,-67.871,-280.273,-49.316,-45.898,-32.715,26704.848
1652668543.946,14.648,193.848,-43.457,0.000,-60.547,26704.852
1652668543.950,-11.719,119.629,-52.246,-29.297,-20.996,26704.856
1652668543.954,-94.727,-538.574,-67.383,-75.195,70.801,26704.860
1652668543.958,-77.637,-178.223,-49.805,-56.152,-75.684,26704.864
1652668543.962,-11.230,342.285,-62.500,-18.555,-134.766,26704.867
1652668543.965,6.348,103.027,-72.754,-10.254,-38.086,26704.871
1652668543.969,-56.641,-189.941,-47.852,-47.363,-21.484,26704.875
1652668543.973,-93.262,-74.707,-56.152,-68.848,-46.387,26704.879
1652668543.977,-30.762,288.574,-64.941,-29.785,-62.500,26704.883
1652668543.981,23.438,-72.266,-69.336,1.465,68.848,26704.886
1652668543.985,-45.898,-551.270,-74.219,-54.688,65.430,26704.890
1652668543.989,-99.121,-324.219,-49.805,-77.148,-51.758,26704.894
1652668543.992,-46.387,-109.375,-24.902,-28.320,-82.031,26704.898
1652668543.996,12.207,-432.617,-42.969,11.719,149.902,26704.902
1652668544.000,-28.320,-947.266,-68.848,-27.832,323.730,26704.906
1652668544.004,-102.539,-252.441,-73.242,-84.961,-4.883,26704.910
1652668544.008,-90.820,169.922,-59.082,-59.570,-175.781,26704.914
1652668544.009,3.418,39.551,-34.180,6.836,-39.551,26704.914
1652668544.013,24.902,278.809,-28.320,2.930,-8.789,26704.918
1652668544.017,-72.754,353.027,-77.637,-67.383,-119.629,26704.922
1652668544.021,-105.469,94.727,-89.844,-82.031,-178.711,26704.926
1652668544.025,-31.250,-180.664,-68.359,-29.297,-98.145,26704.930
1652668544.029,15.137,-107.910,-67.383,-0.977,30.273,26704.934
1652668544.033,-57.129,-125.000,-48.828,-52.734,-32.227,26704.938
1652668544.036,-86.426,-206.055,-21.973,-58.594,-134.766,26704.942
1652668544.040,1.953,-791.016,-19.043,17.090,166.504,26704.945
1652668544.044,22.461,-633.301,-59.082,6.348,223.633,26704.949
1652668544.048,-60.547,287.109,-78.125,-74.707,-110.352,26704.953
1652668544.052,-104.004,54.688,-62.500,-89.355,-134.277,26704.957
1652668544.054,-59.570,-45.410,-65.430,-46.387,-83.984,26704.959
1652668544.058,27.344,319.824,-52.734,15.625,-85.449,26704.963
1652668544.062,-22.461,316.406,-52.246,-26.855,-80.078,26704.967
1652668544.066,-122.070,-10.254,-98.145,-98.145,-123.047,26704.971
1652668544.070,-92.285,-95.215,-98.145,-62.012,-127.930,26704.975
1652668544.074,-12.695,-41.504,-68.359,-5.371,-17.578,26704.979
1652668544.078,-17.578,-127.930,-49.316,-25.391,82.031,26704.983
1652668544.081,-86.426,-521.973,-37.598,-67.871,190.918,26704.987
1652668544.085,-87.891,-1000.000,-57.129,-56.641,396.973,26704.991
1652668544.089,-28.809,-574.219,-81.543,-27.832,216.309,26704.994
1652668544.093,6.836,256.348,-73.242,-8.789,-68.359,26704.998
1652668544.097,-31.250,98.633,-59.570,-31.738,-109.375,26705.002
1652668544.099,-85.449,95.703,-55.176,-68.359,-146.973,26705.019
1652668544.103,-57.617,332.031,-49.316,-46.875,-164.551,26705.023
1652668544.107,9.277,187.500,-67.871,-11.719,-168.457,26705.027
1652668544.111,-45.410,-8.789,-70.801,-54.199,-160.156,26705.031
1652668544.115,-108.398,69.824,-48.340,-87.891,-126.953,26705.035
1652668544.119,-54.199,-89.844,-54.199,-49.316,-147.949,26705.039
1652668544.123,22.949,-183.105,-58.594,5.371,-81.543,26705.043
1652668544.126,-0.977,-607.422,-56.152,-15.625,222.656,26705.046
1652668544.130,-92.285,-361.816,-64.941,-82.031,107.422,26705.050
1652668544.134,-80.078,292.969,-51.758,-66.406,-191.406,26705.054
1652668544.138,8.789,-43.945,-48.828,-11.719,-47.363,26705.058
1652668544.142,22.461,-193.848,-51.758,-6.348,58.594,26705.062
1652668544.144,-53.223,177.734,-51.270,-60.547,-112.305,26705.061
1652668544.148,-86.914,234.375,-70.312,-75.684,-203.125,26705.065
1652668544.152,-17.578,-121.094,-68.848,-11.719,-86.426,26705.069
1652668544.156,38.086,-106.934,-54.199,19.531,11.719,26705.073
1652668544.160,-42.969,173.828,-64.453,-52.246,-114.746,26705.077
1652668544.164,-122.070,-117.676,-90.332,-103.027,-114.746,26705.081
1652668544.168,-75.684,-426.270,-85.449,-60.547,49.805,26705.085
1652668544.171,20.508,-382.324,-45.410,6.348,151.855,26705.089
1652668544.175,-15.137,-52.734,-42.969,-28.320,87.402,26705.093
1652668544.179,-94.238,239.258,-51.270,-76.660,-103.516,26705.097
1652668544.183,-62.500,-426.270,-35.645,-31.250,75.684,26705.100
1652668544.187,13.184,-599.121,-42.480,10.742,211.426,26705.104
1652668544.205,-8.301,225.586,-61.035,-23.926,-28.809,26705.110
1652668544.209,-104.004,155.762,-81.055,-87.402,-153.809,26705.114
1652668544.213,-108.398,-644.043,-96.191,-78.613,37.109,26705.118
1652668544.217,-6.348,-572.266,-77.637,-4.395,96.680,26705.122
1652668544.221,19.043,297.852,-58.105,-4.883,-105.469,26705.125
1652668544.225,-88.867,31.738,-56.641,-85.938,-72.754,26705.129
1652668544.229,-128.418,-733.887,-68.359,-96.191,145.508,26705.133
1652668544.232,-33.691,-435.059,-62.012,-13.184,71.289,26705.137
1652668544.236,39.062,387.207,-39.551,33.691,-95.703,26705.141
1652668544.240,-37.598,114.258,-33.691,-29.297,-83.984,26705.145
1652668544.244,-119.141,-172.852,-70.312,-84.473,-94.238,26705.149
1652668544.248,-69.824,175.293,-94.238,-42.969,-131.348,26705.153
1652668544.234,10.254,389.160,-76.660,0.977,-71.777,26705.153
1652668544.238,-32.227,118.652,-62.500,-41.504,-13.672,26705.157
1652668544.242,-97.168,-53.223,-52.734,-68.359,-99.609,26705.161
1652668544.246,-81.055,155.762,-45.898,-44.434,-173.340,26705.165
1652668544.250,1.953,142.578,-40.039,5.371,-123.047,26705.169
1652668544.254,11.719,-397.461,-43.457,5.371,105.957,26705.173
1652668544.258,-63.477,-655.762,-53.223,-45.410,169.922,26705.177
1652668544.261,-78.125,-315.430,-68.359,-54.688,-9.277,26705.181
1652668544.265,19.531,-135.254,-48.340,19.531,-83.496,26705.185
1652668544.269,64.941,-425.293,-24.902,51.270,101.562,26705.189
1652668544.273,-65.430,-1000.000,-64.453,-51.270,322.754,26705.193
1652668544.277,-122.559,-395.020,-95.215,-95.215,55.664,26705.196
1652668544.294,-56.641,239.258,-86.426,-46.875,-143.555,26705.199
1652668544.298,4.883,105.957,-68.359,-2.441,-34.668,26705.203
1652668544.302,-30.762,180.664,-50.781,-31.738,-75.195,26705.207
1652668544.306,-83.008,301.758,-35.156,-67.871,-178.711,26705.211
1652668544.310,-54.688,124.023,-36.133,-40.527,-164.551,26705.215
1652668544.314,8.789,-213.867,-43.945,-6.348,64.453,26705.219
1652668544.318,-19.531,-165.527,-46.387,-38.086,55.664,26705.223
1652668544.321,-78.613,-53.223,-35.156,-64.941,-138.184,26705.227
1652668544.325,-62.500,-160.156,-38.574,-43.457,-104.004,26705.231
1652668544.329,-0.488,-748.535,-59.570,1.953,152.344,26705.234
1652668544.333,-2.930,-392.578,-65.918,-17.090,121.094,26705.238
1652668544.337,-89.844,369.629,-64.941,-89.844,-131.348,26705.242
1652668544.339,-105.957,33.691,-71.777,-87.891,-104.004,26705.245
1652668544.343,-19.531,42.480,-57.617,-23.438,-28.809,26705.249
1652668544.347,17.578,410.645,-63.965,-1.465,-9.277,26705.253
1652668544.351,-43.457,378.418,-47.852,-34.180,-65.430,26705.257
1652668544.355,-84.473,-66.406,-43.457,-49.316,-149.902,26705.260
1652668544.359,-53.711,-283.203,-87.402,-31.738,-76.660,26705.264
1652668544.363,18.555,-79.102,-67.383,11.230,54.199,26705.268
1652668544.366,-35.156,-36.621,-49.805,-39.062,65.918,26705.272
1652668544.370,-104.004,-535.156,-42.969,-82.031,119.629,26705.276
1652668544.374,-44.434,-936.523,-23.926,-19.043,205.078,26705.280
1652668544.378,32.715,-198.242,-41.504,26.855,68.848,26705.284
1652668544.382,-9.277,92.773,-80.078,-21.484,-49.805,26705.288
1652668544.384,-99.121,-237.793,-80.078,-80.566,-41.016,26705.289
1652668544.388,-108.887,-36.133,-74.219,-78.125,-98.633,26705.293
1652668544.392,-12.207,374.023,-68.359,-14.648,-99.121,26705.297
1652668544.396,23.926,241.211,-56.152,0.000,-55.664,26705.301
1652668544.400,-78.125,-41.016,-56.641,-70.801,-126.953,26705.305
1652668544.404,-106.934,-176.758,-47.363,-75.684,-129.883,26705.309
1652668544.408,-20.996,-151.367,-37.109,-13.672,-78.125,26705.313
1652668544.411,42.480,-120.605,-42.969,21.484,-63.477,26705.317
1652668544.415,-19.531,-653.320,-48.340,-20.996,72.266,26705.320
1652668544.419,-89.355,-365.723,-30.762,-63.477,-22.461,26705.324
1652668544.423,-46.387,336.426,-25.391,-27.832,-178.223,26705.328
1652668544.427,14.160,115.234,-65.430,2.441,-8.301,26705.332
1652668544.430,-37.109,-25.879,-83.984,-43.945,27.832,26705.336
1652668544.434,-97.656,66.895,-59.570,-73.730,-135.254,26705.340
1652668544.438,-55.664,-57.617,-55.176,-32.227,-142.090,26705.344
1652668544.442,4.395,-327.637,-68.848,0.977,18.555,26705.348
1652668544.446,-21.484,-249.023,-64.941,-31.250,93.750,26705.352
1652668544.450,-69.824,-92.285,-41.504,-58.105,5.859,26705.355
1652668544.454,-53.711,-175.293,-19.043,-37.598,-41.016,26705.359
1652668544.457,-5.371,-470.703,-36.133,-4.883,142.090,26705.363
1652668544.461,13.672,-986.328,-50.781,2.441,381.836,26705.367
1652668544.465,-67.871,-253.906,-62.988,-65.918,83.008,26705.371
1652668544.469,-107.910,215.332,-84.961,-92.285,-213.867,26705.375
1652668544.473,-13.184,-11.230,-71.777,-18.555,-133.789,26705.379
1652668544.474,44.922,246.582,-53.711,15.625,-34.668,26705.379
1652668544.478,-19.043,408.203,-39.062,-27.832,-90.332,26705.383
1652668544.482,-85.938,143.555,-46.387,-61.523,-162.598,26705.387
1652668544.486,-44.922,-32.227,-60.059,-29.785,-104.004,26705.391
1652668544.490,32.715,115.234,-52.246,21.973,-2.441,26705.395
1652668544.494,-6.836,4.395,-51.758,-4.395,11.230,26705.399
1652668544.498,-88.867,-164.062,-59.570,-59.082,17.090,26705.403
1652668544.501,-83.496,-771.973,-72.266,-51.758,273.926,26705.407
1652668544.505,5.371,-688.477,-60.059,8.301,239.258,26705.411
1652668544.509,8.301,252.441,-28.320,-4.395,-79.590,26705.414
1652668544.513,-84.961,91.797,-31.250,-68.359,-112.305,26705.418
1652668544.517,-79.102,-95.215,-36.621,-50.781,-118.652,26705.422
1652668544.519,20.508,291.504,-18.555,18.066,-92.285,26705.437
1652668544.523,64.941,403.809,-5.859,46.875,-43.945,26705.441
1652668544.527,-24.902,13.672,-39.062,-15.625,-65.430,26705.445
1652668544.531,-91.309,-80.566,-75.684,-64.453,-119.141,26705.448
1652668544.535,-40.039,197.266,-71.777,-25.391,-120.605,26705.452
1652668544.539,20.508,138.672,-63.965,7.812,-30.762,26705.456
1652668544.543,-13.184,-478.516,-53.223,-11.230,172.363,26705.460
1652668544.546,-74.707,-890.137,-46.875,-36.133,232.422,26705.464
1652668544.550,-62.500,-386.230,-57.617,-31.738,-20.996,26705.468
1652668544.554,22.461,33.691,-54.688,20.020,-129.395,26705.472
1652668544.558,13.184,-427.246,-40.039,3.418,29.785,26705.476
1652668544.562,-67.383,-546.387,-25.879,-51.270,27.832,26705.480
1652668544.564,-57.129,201.660,-18.555,-39.551,-206.543,26705.483
1652668544.568,-3.418,255.859,-51.758,-8.789,-152.832,26705.487
1652668544.572,-5.371,84.473,-79.590,-22.461,-84.961,26705.491
1652668544.576,-81.055,176.270,-76.172,-69.824,-185.547,26705.495
1652668544.580,-99.609,220.703,-73.242,-72.754,-187.012,26705.499
1652668544.584,-6.836,-29.297,-46.875,-5.371,-8.789,26705.502
1652668544.588,39.062,-520.508,-47.363,18.066,270.508,26705.506
1652668544.591,-44.434,-221.191,-91.309,-55.176,150.391,26705.510
1652668544.595,-94.238,339.355,-85.938,-95.703,-183.594,26705.514
1652668544.599,-32.715,76.172,-48.828,-36.621,-111.816,26705.518
1652668544.603,45.898,-176.758,-44.922,30.762,50.293,26705.522
1652668544.607,10.742,10.742,-48.340,-2.930,2.441,26705.526
1652668544.610,-63.477,274.902,-29.785,-49.316,-181.641,26705.529
1652668544.614,-65.918,-128.418,-35.645,-44.922,-110.352,26705.533
1652668544.618,-3.906,-327.637,-48.828,-9.277,36.621,26705.537
1652668544.622,-16.113,210.938,-50.781,-30.273,-74.707,26705.541
1652668544.626,-98.633,212.891,-54.688,-88.867,-221.680,26705.544
1652668544.630,-99.609,-372.559,-68.359,-71.289,-49.805,26705.548
1652668544.634,-7.812,-483.398,-72.266,0.000,144.531,26705.552
1652668544.637,20.020,-109.863,-74.707,9.766,92.285,26705.556
1652668544.641,-62.012,-69.824,-53.711,-48.828,-11.719,26705.560
1652668544.645,-69.824,-549.805,-30.762,-46.875,9.277,26705.564
1652668544.649,19.531,-729.492,-37.109,21.484,166.016,26705.568
1652668544.653,77.148,181.641,-23.926,41.504,37.109,26705.572
1652668544.670,-9.766,324.707,-42.480,-35.645,-109.863,26705.576
1652668544.674,-87.891,-268.555,-82.520,-83.008,-97.168,26705.579
1652668544.678,-51.270,-234.863,-76.172,-50.781,-46.387,26705.583
1652668544.682,3.906,306.152,-61.523,-15.137,-78.613,26705.587
1652668544.686,-34.668,256.348,-55.664,-41.016,-80.566,26705.591
1652668544.690,-88.379,-430.176,-37.598,-63.477,101.562,26705.595
1652668544.694,-61.035,-523.926,-41.992,-43.457,44.922,26705.599
1652668544.697,4.395,167.480,-49.805,-4.395,-82.520,26705.603
1652668544.701,8.301,191.895,-33.203,-6.348,-8.789,26705.607
1652668544.705,-76.660,-513.184,-38.574,-62.012,69.336,26705.611
1652668544.709,-96.680,-204.590,-59.082,-68.848,-60.547,26705.615
1652668544.713,-0.488,334.473,-55.664,-4.395,-109.863,26705.619
1652668544.714,45.898,107.910,-60.059,15.137,2.930,26705.620
1652668544.718,-54.199,-14.160,-73.242,-57.617,-51.270,26705.624
1652668544.722,-102.051,163.574,-54.199,-82.520,-177.734,26705.628
1652668544.726,-25.391,223.633,-41.504,-20.996,-154.785,26705.632
1652668544.730,27.344,-52.734,-53.223,3.906,-48.340,26705.636
1652668544.734,-43.457,-329.590,-51.270,-56.152,-5.859,26705.640
1652668544.738,-113.770,-276.367,-58.594,-94.727,-27.344,26705.643
1652668544.741,-63.477,-161.621,-69.824,-50.781,13.184,26705.647
1652668544.745,26.367,-452.148,-56.152,13.672,199.219,26705.651
1652668544.749,5.371,-1000.000,-30.273,-0.488,375.977,26705.655
1652668544.753,-71.777,-620.117,-33.691,-53.223,118.164,26705.659
1652668544.757,-56.641,111.816,-47.363,-39.062,-179.199,26705.663
1652668544.759,11.230,83.008,-43.457,3.418,-114.258,26705.664
1652668544.763,-5.859,198.730,-56.641,-28.320,-104.004,26705.668
1652668544.767,-73.242,266.602,-50.781,-77.148,-193.359,26705.672
1652668544.771,-81.055,112.305,-32.715,-65.918,-190.918,26705.676
1652668544.775,-20.020,-27.344,-46.387,-24.414,-90.820,26705.680
1652668544.779,26.855,-24.414,-45.410,-6.348,21.484,26705.684
1652668544.783,-37.109,-119.629,-42.480,-56.641,25.879,26705.688
1652668544.786,-92.285,-221.680,-57.129,-84.473,-108.887,26705.692
1652668544.790,-36.621,-818.848,-53.711,-37.598,118.652,26705.696
1652668544.794,36.621,-638.184,-52.246,7.324,187.988,26705.700
1652668544.798,-12.695,300.781,-61.523,-36.621,-117.676,26705.703
1652668544.802,-92.285,72.754,-65.430,-83.984,-126.953,26705.707
1652668544.804,-68.359,-83.008,-42.969,-55.176,-81.543,26705.724
1652668544.808,19.531,314.941,-24.902,-1.953,-80.078,26705.728
1652668544.812,17.090,406.738,-23.926,-7.324,-41.504,26705.732
1652668544.816,-61.523,71.777,-26.855,-48.828,-51.270,26705.736
1652668544.820,-67.871,-40.039,-34.180,-43.457,-89.844,26705.740
1652668544.824,5.371,-18.555,-39.551,2.930,-72.266,26705.743
1652668544.828,30.762,24.902,-52.734,0.977,26.855,26705.747
1652668544.831,-37.109,-394.043,-48.340,-38.574,201.172,26705.751
1652668544.835,-87.891,-1000.000,-62.012,-61.523,325.684,26705.755
1652668544.839,-28.809,-271.484,-72.754,-34.668,28.320,26705.759
1652668544.843,44.434,312.012,-49.805,13.184,-126.465,26705.763
1652668544.847,-21.973,-38.574,-53.223,-33.691,-20.996,26705.767
1652668544.849,-93.750,-1.953,-73.730,-87.402,-70.801,26705.754
1652668544.853,-32.227,392.090,-67.871,-36.133,-121.094,26705.758
1652668544.857,55.664,320.801,-34.180,26.855,-79.590,26705.762
1652668544.861,11.719,26.367,-24.902,-6.348,-72.754,26705.766
1652668544.865,-76.172,125.977,-56.152,-69.824,-115.723,26705.770
1652668544.869,-56.641,45.410,-40.527,-55.664,-102.051,26705.774
1652668544.873,26.367,-172.363,-18.066,7.812,73.730,26705.778
1652668544.876,47.363,-134.766,-15.625,21.973,113.770,26705.782
1652668544.880,-53.223,146.973,-33.203,-51.758,-45.410,26705.786
1652668544.884,-95.215,375.977,-68.848,-77.637,-116.211,26705.790
1652668544.888,-6.836,93.262,-79.590,-10.742,-24.414,26705.793
1652668544.892,21.973,-415.527,-49.805,2.441,193.359,26705.797
1652668544.895,-54.199,-2.930,-35.156,-55.176,55.176,26705.828
1652668544.899,-85.449,237.305,-52.734,-59.082,-127.930,26705.832
1652668544.903,-12.695,-285.156,-38.086,5.371,71.777,26705.835
1652668544.907,42.480,-212.891,-31.250,30.273,160.645,26705.839
1652668544.911,-28.320,239.258,-41.504,-30.273,-46.387,26705.843
1652668544.915,-97.656,25.879,-50.293,-65.430,-89.355,26705.847
1652668544.919,-39.062,-538.086,-37.598,-2.930,132.324,26705.851
1652668544.922,41.992,-864.746,-19.531,48.340,340.332,26705.855
1652668544.926,-5.859,-128.418,-47.852,-11.719,101.562,26705.859
1652668544.930,-76.172,284.668,-49.316,-61.035,-179.199,26705.863
1652668544.934,-55.176,-191.895,-44.922,-43.457,-100.098,26705.867
1652668544.938,26.855,-105.957,-52.246,12.207,-36.621,26705.871
1652668544.939,31.738,412.109,-61.035,18.555,-80.078,26705.859
1652668544.943,-69.824,254.395,-67.871,-46.387,-100.586,26705.862
1652668544.947,-96.191,-42.969,-66.895,-67.871,-140.137,26705.866
1652668544.951,-15.625,143.066,-48.828,-14.648,-101.074,26705.870
1652668544.955,32.715,213.867,-30.273,13.672,-55.664,26705.874
1652668544.959,-44.922,-51.270,-45.898,-51.758,-52.246,26705.878
1652668544.963,-76.660,-706.543,-36.621,-51.758,206.543,26705.882
1652668544.966,-2.441,-548.828,-22.461,3.418,226.074,26705.886
1652668544.970,39.551,334.473,-54.199,3.418,-72.266,26705.890
1652668544.974,-12.695,73.730,-58.105,-27.344,-55.664,26705.894
1652668544.978,-61.523,-243.652,-38.086,-47.852,-33.203,26705.898
1652668544.982,-19.043,155.273,-39.551,-17.090,-109.375,26705.901
1652668544.984,25.879,453.613,-77.148,5.371,-65.918,26705.917
1652668544.988,-21.484,-8.301,-85.938,-36.133,40.039,26705.921
1652668544.992,-94.727,-388.672,-57.129,-77.148,14.160,26705.925
1652668544.996,-81.543,137.695,-46.875,-60.059,-130.371,26705.929
1652668545.000,8.789,311.523,-41.016,0.000,-122.070,26705.933
1652668545.004,14.648,-59.570,-43.945,-6.836,86.914,26705.937
1652668545.008,-74.707,-344.727,-58.105,-69.336,98.145,26705.940
1652668545.011,-83.496,-270.020,-49.316,-53.711,-77.637,26705.944
1652668545.015,-3.418,-100.098,-47.852,6.348,-74.707,26705.948
1652668545.019,61.523,-368.652,-35.645,45.898,112.793,26705.952
1652668545.023,-20.508,-1000.000,-36.621,-8.789,311.523,26705.956
1652668545.027,-107.422,-425.293,-63.965,-74.707,40.527,26705.960
1652668545.044,-41.992,202.637,-60.547,-28.809,-190.430,26705.963
1652668545.048,23.438,148.438,-60.059,2.930,-39.062,26705.967
1652668545.052,-41.992,316.406,-65.430,-49.805,-12.207,26705.971
1652668545.056,-107.422,385.742,-70.312,-86.426,-151.367,26705.975
1652668545.060,-65.918,161.133,-50.781,-47.363,-143.066,26705.979
1652668545.064,17.578,-166.992,-27.832,15.137,40.039,26705.983
1652668545.068,6.348,-154.297,-18.066,3.906,64.941,26705.987
1652668545.071,-56.152,66.895,-17.578,-28.809,-84.473,26705.991
1652668545.075,-42.969,45.898,-36.133,-2.930,-104.492,26705.995
1652668545.079,14.648,-335.938,-63.477,23.926,87.891,26705.999
1652668545.083,9.766,-20.996,-57.129,-14.160,57.617,26706.003
1652668545.087,-87.891,102.539,-56.641,-83.496,-137.695,26706.006
1652668545.089,-116.699,-319.336,-72.266,-82.520,-108.887,26705.994
1652668545.093,-49.316,-500.977,-69.336,-32.715,106.934,26705.998
1652668545.097,-3.906,73.730,-62.012,-20.508,-25.391,26706.002
1652668545.101,-66.406,346.680,-69.336,-65.918,-166.992,26706.006
1652668545.105,-108.887,-19.531,-70.801,-78.613,-116.699,26706.010
1652668545.109,-46.387,-208.984,-60.547,-30.762,-7.324,26706.014
1652668545.113,25.391,-18.066,-55.664,7.812,16.602,26706.018
1652668545.116,-6.348,-53.711,-53.223,-27.344,-64.941,26706.022
1652668545.120,-78.125,-325.684,-47.852,-64.941,-69.336,26706.026
1652668545.124,-60.547,-95.215,-42.480,-34.668,-97.656,26706.030
1652668545.128,8.789,306.641,-74.219,2.441,-109.863,26706.033
1652668545.132,-7.324,405.273,-81.055,-24.414,-104.492,26706.037
1652668545.135,-100.098,-336.914,-56.152,-80.078,76.660,26706.041
1652668545.139,-106.445,-877.441,-60.059,-74.707,248.047,26706.044
1652668545.143,-15.625,-94.727,-77.637,-18.555,39.062,26706.048
1652668545.147,18.066,288.086,-71.777,-3.418,-51.270,26706.052
1652668545.151,-54.199,-82.520,-41.992,-48.828,-42.480,26706.056
1652668545.155,-74.219,-185.547,-41.992,-53.711,-80.078,26706.060
1652668545.159,-0.977,-59.082,-43.945,0.488,-75.195,26706.064
1652668545.162,39.551,17.578,-50.781,21.484,-32.227,26706.068
1652668545.166,-30.762,-476.562,-62.500,-35.156,168.945,26706.072
1652668545.170,-98.145,-257.812,-46.875,-76.660,91.309,26706.076
1652668545.174,-63.477,444.336,-43.945,-53.711,-144.043,26706.080
1652668545.178,11.719,171.387,-47.852,-13.672,-76.172,26706.083
1652668545.179,-14.160,104.980,-56.152,-31.250,-38.086,26706.084
1652668545.183,-98.145,322.754,-70.801,-79.590,-157.227,26706.088
1652668545.187,-77.148,292.480,-72.754,-56.641,-208.008,26706.092
1652668545.191,25.391,103.516,-42.969,20.508,-90.332,26706.096
1652668545.195,24.902,53.223,-46.387,11.719,-18.555,26706.100
1652668545.199,-70.312,-26.367,-71.289,-61.035,-75.195,26706.104
1652668545.203,-67.871,-172.852,-49.805,-51.270,-106.934,26706.108
1652668545.206,2.441,-442.871,-44.434,10.254,98.633,26706.112
1652668545.210,27.832,-1000.000,-40.039,27.832,494.629,26706.116
1652668545.214,-40.527,-645.508,-23.438,-30.273,282.227,26706.120
1652668545.218,-80.078,143.066,-42.480,-49.805,-148.926,26706.123
1652668545.222,-15.625,120.605,-67.871,-8.789,-113.281,26706.127
1652668545.224,38.574,289.551,-70.312,16.113,-35.645,26706.129
1652668545.228,-12.207,443.848,-44.922,-22.461,-119.141,26706.133
1652668545.232,-80.566,170.898,-40.039,-62.012,-186.035,26706.137
1652668545.236,-57.129,37.109,-52.246,-44.434,-101.074,26706.141
1652668545.240,34.668,280.762,-31.738,18.066,-21.973,26706.145
1652668545.244,20.996,194.824,-28.809,9.277,31.738,26706.149
1652668545.248,-87.402,-79.102,-47.363,-71.289,0.488,26706.153
1652668545.251,-103.516,-688.477,-54.688,-78.125,148.438,26706.157
1652668545.255,-14.648,-458.984,-45.898,-18.066,175.293,26706.161
1652668545.259,15.625,447.266,-44.922,-17.090,-65.430,26706.165
1652668545.263,-72.754,148.926,-33.691,-83.008,-58.594,26706.169
1652668545.267,-119.629,-315.430,-49.316,-103.516,-36.133,26706.172
1652668545.269,-60.059,49.805,-89.844,-60.547,-110.840,26706.187
1652668545.273,-15.625,415.039,-73.730,-42.480,-89.844,26706.191
1652668545.277,-80.078,114.746,-35.156,-87.402,-92.773,26706.195
1652668545.281,-133.301,18.066,-45.410,-114.258,-108.887,26706.199
1652668545.285,-70.312,260.254,-48.340,-59.570,-96.191,26706.203
1652668545.289,3.906,146.484,-37.598,-12.207,-34.668,26706.207
1652668545.293,-46.875,-419.434,-47.852,-56.152,145.996,26706.211
1652668545.296,-109.863,-846.191,-43.457,-89.355,136.230,26706.215
1652668545.300,-79.590,-187.012,-41.992,-60.547,-91.797,26706.219
1652668545.304,-6.836,368.164,-53.223,-19.531,-139.648,26706.222
1652668545.308,1.465,-267.090,-58.594,-10.254,1.953,26706.226
1652668545.312,-89.844,-480.957,-89.355,-68.359,42.969,26706.230
1652668545.315,-99.609,238.770,-70.312,-77.148,-147.461,26706.234
1652668545.319,1.953,307.129,-12.207,-0.977,-133.789,26706.237
1652668545.323,17.090,-52.734,-2.441,0.488,-6.348,26706.241
1652668545.327,-76.172,9.277,-32.715,-66.406,-54.199,26706.245
1652668545.331,-107.422,246.582,-59.570,-82.031,-185.547,26706.249
1652668545.335,-40.527,36.621,-54.688,-33.691,-47.363,26706.253
1652668545.339,16.602,-451.172,-45.410,3.418,235.840,26706.257
1652668545.342,-46.875,-198.242,-40.527,-48.340,77.637,26706.261
1652668545.346,-102.539,329.102,-31.738,-85.449,-197.754,26706.265
1652668545.350,-54.199,28.320,-48.828,-37.598,-142.090,26706.269
1652668545.354,25.879,-42.969,-66.895,17.090,-2.441,26706.273
1652668545.358,-8.301,297.852,-55.176,-14.160,-55.664,26706.277
1652668545.374,-87.402,296.387,-66.895,-72.266,-211.914,26706.280
1652668545.378,-58.105,-61.035,-60.059,-43.945,-117.188,26706.284
1652668545.382,17.578,-147.949,-35.156,10.742,72.754,26706.288
1652668545.386,4.395,253.418,-36.621,-12.207,7.812,26706.292
1652668545.390,-81.543,321.289,-46.387,-70.801,-127.930,26706.296
1652668545.394,-104.004,-410.156,-57.129,-78.613,65.918,26706.299
1652668545.398,-26.855,-781.738,-55.664,-24.414,248.535,26706.303
1652668545.401,23.438,-187.012,-43.457,7.324,58.594,26706.307
1652668545.405,-40.527,32.227,-35.156,-34.180,-104.980,26706.311
1652668545.409,-80.078,-476.074,-46.387,-47.852,-29.297,26706.315
1652668545.413,-42.480,-878.418,-73.242,-26.367,204.102,26706.319
1652668545.417,18.066,-17.090,-64.941,0.000,32.227,26706.323
1652668545.449,3.906,284.180,-14.648,-5.859,-168.457,26706.354
1652668545.453,-76.660,-12.207,-46.387,-63.477,-179.199,26706.358
1652668545.457,-68.848,128.906,-80.078,-65.430,-169.922,26706.362
1652668545.461,5.371,369.141,-59.570,-16.113,-116.211,26706.366
1652668545.465,-14.648,228.027,-57.129,-36.621,-46.875,26706.370
1652668545.469,-96.191,-250.977,-40.039,-86.914,-33.691,26706.374
1652668545.473,-87.402,-271.973,-36.621,-70.312,9.766,26706.378
1652668545.476,17.090,-52.734,-32.227,4.883,46.387,26706.381
1652668545.480,30.273,-38.574,-34.668,6.836,-30.762,26706.385
1652668545.484,-55.176,-705.078,-37.109,-44.922,120.117,26706.389
1652668545.488,-67.871,-510.254,-42.969,-48.340,62.012,26706.393
1652668545.492,-17.090,353.516,-55.664,-20.508,-145.508,26706.397
1652668545.456,13.672,153.320,-47.363,-5.371,-75.195,26706.368
1652668545.460,-50.781,5.859,-44.434,-50.293,-105.469,26706.372
1652668545.464,-112.793,194.336,-64.941,-87.891,-194.824,26706.376
1652668545.468,-55.664,285.645,-58.105,-46.387,-137.695,26706.380
1652668545.472,28.809,135.742,-35.645,11.230,-11.719,26706.384
1652668545.476,-12.695,-98.145,-26.855,-16.602,26.367,26706.388
1652668545.480,-96.191,-141.602,-36.133,-72.266,-23.926,26706.392
1652668545.483,-74.219,-156.250,-63.965,-50.781,-17.578,26706.396
1652668545.487,30.762,-271.484,-44.922,28.809,170.898,26706.399
1652668545.491,27.832,-212.402,-19.531,7.812,158.691,26706.403
1652668545.495,-81.543,200.195,-39.062,-75.195,-73.730,26706.407
1652668545.499,-95.215,238.770,-42.969,-66.406,-145.996,26706.411
1652668545.509,-19.043,-64.941,-31.738,-10.742,-34.668,26706.414
1652668545.513,8.301,88.867,-40.039,-5.371,-4.395,26706.418
1652668545.517,-71.777,292.969,-57.617,-59.082,-114.746,26706.422
1652668545.521,-100.098,192.871,-47.363,-65.430,-173.828,26706.426
1652668545.525,-17.578,-444.336,-47.852,0.488,80.078,26706.430
1652668545.529,29.297,-1000.000,-61.035,29.297,479.492,26706.433
1652668545.533,-40.039,-715.820,-52.246,-28.809,322.754,26706.437
1652668545.536,-86.426,-218.750,-56.152,-66.406,-64.941,26706.441
1652668545.540,-22.949,-317.871,-55.176,-10.254,-42.480,26706.445
1652668545.544,33.203,108.887,-57.129,24.414,-41.992,26706.449
1652668545.548,-32.715,446.777,-58.105,-41.504,-189.941,26706.453
1652668545.552,-95.703,-109.863,-52.734,-79.102,-79.590,26706.457
1652668545.554,-61.035,-307.129,-54.688,-49.316,-15.137,26706.460
1652668545.558,27.344,303.711,-45.410,4.395,-121.094,26706.464
1652668545.562,15.625,466.797,-47.852,-9.766,-124.512,26706.468
1652668545.566,-86.426,84.473,-69.824,-77.148,-108.887,26706.471
1652668545.570,-93.262,-20.508,-63.477,-72.266,-135.254,26706.475
1652668545.574,6.348,37.109,-37.109,-6.348,-129.883,26706.479
1652668545.578,41.016,15.137,-23.926,15.137,16.602,26706.483
1652668545.581,-63.965,-410.645,-35.645,-54.688,154.785,26706.487
1652668545.585,-89.844,-1000.000,-34.668,-52.734,234.863,26706.491
1652668545.589,-4.883,-262.695,-47.852,0.977,33.203,26706.495
1652668545.593,35.645,466.309,-83.008,14.648,-92.773,26706.499
1652668545.597,-32.227,94.727,-75.195,-33.691,-25.391,26706.503
1652668545.600,-95.215,106.445,-55.664,-78.613,-97.168,26706.516
1652668545.604,-58.594,352.051,-37.598,-46.387,-149.414,26706.520
1652668545.608,16.602,137.695,-34.180,3.418,-50.781,26706.524
1652668545.612,-17.090,-95.215,-49.805,-23.438,41.016,26706.528
1652668545.616,-100.586,86.426,-62.500,-78.125,-36.133,26706.532
1652668545.620,-63.965,108.398,-45.410,-41.016,-98.145,26706.536
1652668545.624,25.391,-46.387,-17.578,21.484,-39.062,26706.540
1652668545.627,21.484,-549.316,-24.414,4.395,174.316,26706.544
1652668545.631,-60.547,-361.328,-45.410,-58.594,62.500,26706.548
1652668545.635,-80.566,355.957,-51.270,-68.359,-223.145,26706.551
1652668545.639,-4.883,153.320,-46.875,-7.812,-135.742,26706.555
1652668545.643,40.039,75.684,-33.203,19.531,-22.949,26706.559
1652668545.644,-52.246,338.379,-42.969,-57.129,-81.543,26706.562
1652668545.648,-112.793,340.820,-53.711,-97.168,-164.551,26706.566
1652668545.652,-44.922,64.453,-49.316,-45.410,-95.703,26706.569
1652668545.656,51.270,79.590,-34.668,16.113,-48.828,26706.573
1652668545.660,-4.883,215.820,-39.062,-25.879,-126.953,26706.577
1652668545.664,-93.750,27.344,-60.547,-80.078,-125.488,26706.581
1652668545.668,-41.504,-509.766,-52.246,-25.391,56.152,26706.585
1652668545.671,62.012,-866.211,-22.949,55.176,317.871,26706.589
1652668545.675,33.203,-325.195,-28.320,11.230,161.621,26706.593
1652668545.679,-81.543,160.645,-50.781,-79.102,-106.934,26706.597
1652668545.683,-75.684,-381.836,-43.945,-56.152,-33.203,26706.601
1652668545.687,7.812,-590.820,-51.758,6.836,59.570,26706.605
1652668545.689,17.578,203.125,-65.918,0.488,-83.008,26706.608
1652668545.693,-59.082,256.836,-59.570,-49.805,-116.211,26706.612
1652668545.697,-90.820,-55.664,-57.129,-62.012,-134.766,26706.616
1652668545.701,-13.672,140.137,-46.875,-15.137,-106.934,26706.619
1652668545.705,37.109,344.727,-25.879,16.113,-88.379,26706.623
1652668545.709,-39.062,-74.219,-33.691,-39.062,-161.621,26706.627
1652668545.713,-92.285,-660.156,-61.035,-64.453,-19.531,26706.631
1652668545.716,-45.898,-364.746,-59.082,-24.414,-29.785,26706.635
1652668545.720,22.949,91.309,-50.293,5.859,-69.336,26706.639
1652668545.724,-12.207,-187.988,-45.410,-23.926,-58.594,26706.643
1652668545.728,-100.098,-473.633,-59.082,-74.707,-83.984,26706.647
1652668545.732,-69.336,15.137,-73.242,-52.246,-99.121,26706.651
1652668545.749,37.109,442.383,-56.641,20.508,-73.730,26706.654
1652668545.753,15.625,200.684,-47.363,0.977,39.551,26706.658
1652668545.757,-94.727,39.551,-57.617,-78.125,-35.156,26706.662
1652668545.761,-95.215,323.730,-51.270,-64.453,-126.465,26706.666
1652668545.765,-8.789,340.820,-32.227,-0.488,-37.109,26706.670
1652668545.769,10.742,-241.699,-28.809,3.418,159.668,26706.674
1652668545.773,-73.242,-396.484,-54.199,-62.988,154.297,26706.678
1652668545.776,-99.609,-152.344,-60.059,-70.801,18.066,26706.682
1652668545.780,-17.578,44.922,-58.105,-8.301,-11.230,26706.686
1652668545.784,44.922,-274.414,-57.129,22.949,150.391,26706.690
1652668545.788,-12.695,-727.539,-42.480,-12.207,205.078,26706.693
1652668545.792,-67.871,-166.504,-51.758,-48.828,-57.617,26706.697
1652668545.794,-22.949,210.449,-60.547,-20.508,-139.648,26706.699
1652668545.798,56.641,3.906,-34.180,41.992,-5.371,26706.703
1652668545.802,5.859,113.281,-15.137,-5.371,5.859,26706.707
1652668545.806,-96.191,350.098,-10.254,-82.031,-153.320,26706.711
1652668545.810,-81.055,182.129,-22.461,-60.547,-165.527,26706.714
1652668545.814,4.883,-11.230,-48.828,-1.465,1.953,26706.718
1652668545.818,4.395,-101.562,-58.105,-1.465,75.195,26706.722
1652668545.821,-84.473,144.531,-58.594,-65.430,-75.684,26706.726
1652668545.825,-77.148,129.395,-48.340,-51.758,-154.297,26706.730
1652668545.829,9.766,-596.191,-34.180,8.789,126.953,26706.734
1652668545.833,34.180,-212.891,-44.922,9.277,143.066,26706.738
1652668545.837,-38.086,416.016,-48.828,-37.109,-125.000,26706.742
1652668545.839,-67.871,44.434,-41.504,-41.016,-151.367,26706.744
1652668545.843,-6.836,-51.270,-45.410,10.742,-74.707,26706.748
1652668545.847,26.367,68.359,-53.711,17.578,-26.367,26706.752
1652668545.851,-27.832,243.652,-39.551,-36.621,-110.840,26706.756
1652668545.855,-84.473,-127.930,-28.809,-57.617,-75.684,26706.760
1652668545.859,-57.617,-540.527,-44.922,-30.273,7.324,26706.764
1652668545.863,8.301,-135.742,-59.570,-1.953,-23.926,26706.767
1652668545.866,-15.137,87.402,-45.898,-23.926,44.434,26706.771
1652668545.870,-84.473,-369.141,-47.363,-65.918,115.723,26706.775
1652668545.874,-81.543,-988.281,-75.195,-57.129,237.305,26706.779
1652668545.878,0.977,-153.809,-73.730,-7.812,130.859,26706.783
1652668545.882,12.207,460.938,-50.781,-7.324,-4.395,26706.787
1652668545.884,-73.730,167.969,-47.852,-66.406,-28.320,26706.789
1652668545.888,-95.703,234.375,-69.824,-72.754,-104.004,26706.793
1652668545.892,-10.254,436.523,-64.453,-0.488,-113.281,26706.797
1652668545.896,37.109,348.633,-46.875,28.809,-70.801,26706.801
1652668545.900,-61.035,91.797,-79.590,-55.176,-39.062,26706.805
1652668545.904,-104.004,-32.715,-58.105,-71.777,-55.664,26706.809
1652668545.908,-49.316,-51.270,-42.480,-20.996,-15.625,26706.813
1652668545.911,-18.066,41.504,-76.172,-17.578,60.059,26706.817
1652668545.915,-70.312,-639.648,-53.223,-60.059,221.191,26706.820
1652668545.919,-124.023,-672.363,-42.969,-89.844,102.539,26706.824
1652668545.923,-75.684,314.941,-57.129,-48.340,-177.246,26706.828
1652668545.927,7.812,216.797,-54.199,9.766,-55.664,26706.832
1652668545.929,-13.672,26.367,-46.875,-19.531,-9.766,26706.848
1652668545.933,-93.750,325.684,-49.805,-70.312,-145.508,26706.852
1652668545.937,-90.332,312.988,-58.594,-57.129,-187.012,26706.855
1652668545.941,-3.906,112.305,-44.922,7.324,-68.359,26706.859
1652668545.945,10.742,169.434,-50.293,-1.465,-0.488,26706.863
1652668545.949,-79.590,61.035,-71.777,-70.801,-72.266,26706.867
1652668545.953,-86.914,-123.535,-64.453,-55.176,-127.930,26706.871
1652668545.956,-16.113,-428.711,-53.223,-4.395,28.320,26706.875
1652668545.960,23.438,-1000.000,-29.785,20.508,406.738,26706.879
1652668545.964,-47.852,-520.508,-39.551,-40.039,197.266,26706.883
1652668545.968,-105.469,263.672,-46.387,-78.125,-165.527,26706.887
1652668545.972,-54.688,76.660,-39.062,-32.227,-112.305,26706.891
1652668545.974,15.625,189.941,-46.387,3.906,-41.016,26706.879
1652668545.978,-26.855,448.730,-45.898,-28.809,-86.914,26706.883
1652668545.982,-107.422,208.984,-57.617,-71.289,-194.824,26706.887
1652668545.986,-80.566,12.695,-62.500,-50.293,-153.320,26706.891
1652668545.990,9.766,219.238,-46.387,4.883,-45.898,26706.895
1652668545.994,23.438,119.629,-34.180,7.812,-77.637,26706.898
1652668545.998,-36.621,-159.180,-38.574,-24.902,-65.430,26706.902
1652668546.001,-52.734,-497.559,-52.734,-24.902,56.152,26706.906
1652668546.005,4.883,-105.957,-51.270,4.395,31.738,26706.910
1652668546.009,16.113,488.770,-43.457,-5.859,-57.617,26706.914
1652668546.013,-75.684,79.102,-39.551,-64.453,-21.484,26706.918
1652668546.017,-102.051,-435.547,-26.855,-65.918,10.742,26706.922
1652668546.019,-26.855,8.789,-33.691,-13.672,-88.867,26706.938
1652668546.023,21.973,466.797,-36.621,13.672,-83.984,26706.942
1652668546.027,-51.270,-84.473,-41.992,-40.039,-35.645,26706.946
1652668546.031,-109.863,-435.547,-65.430,-77.148,-73.730,26706.950
1652668546.035,-38.086,119.141,-44.922,-20.508,-104.492,26706.954
1652668546.039,62.012,167.480,-34.180,44.922,41.504,26706.957
1652668546.043,12.695,-409.668,-58.105,-2.441,172.363,26706.961
1652668546.046,-94.238,-922.363,-57.617,-73.730,210.938,26706.965
1652668546.050,-69.336,-225.586,-44.434,-56.641,-6.836,26706.969
1652668546.054,18.066,366.699,-29.785,-2.441,-108.887,26706.973
1652668546.058,7.812,75.684,-37.598,-18.066,14.648,26706.977
1652668546.062,-64.941,47.363,-38.086,-60.547,-57.617,26706.981
1652668546.064,-72.754,298.828,-14.648,-52.246,-221.680,26706.984
1652668546.068,-14.160,219.238,-36.621,-16.602,-174.805,26706.987
1652668546.072,5.859,-122.070,-64.941,-13.672,46.875,26706.991
1652668546.076,-61.035,50.293,-49.316,-65.918,38.086,26706.995
1652668546.080,-89.844,361.328,-41.016,-67.383,-98.145,26706.999
1652668546.084,-25.391,83.984,-52.246,-9.766,-62.012,26707.003
1652668546.088,45.410,-561.035,-46.387,38.574,218.750,26707.007
1652668546.091,-3.906,-332.520,-51.270,-7.812,104.004,26707.011
1652668546.095,-84.473,354.492,-68.848,-68.359,-228.516,26707.015
1652668546.099,-58.594,62.500,-58.594,-41.992,-159.180,26707.019
1652668546.103,30.273,-302.734,-49.316,20.020,21.973,26707.023
1652668546.107,22.461,62.012,-27.832,6.836,-36.133,26707.026
1652668546.109,-52.246,208.496,0.488,-44.434,-150.879,26707.028
1652668546.113,-41.016,-18.555,-3.906,-27.832,-124.512,26707.032
1652668546.117,17.578,48.828,-35.645,7.324,-49.316,26707.036
1652668546.121,3.906,368.652,-61.523,-15.625,-38.574,26707.040
1652668546.125,-66.895,314.941,-49.316,-62.012,-91.797,26707.044
1652668546.129,-91.309,-159.668,-41.504,-55.176,-20.020,26707.048
1652668546.133,-38.574,-356.445,-62.012,-21.484,45.410,26707.052
1652668546.136,25.391,-100.098,-46.875,5.371,59.570,26707.056
1652668546.140,-31.738,-50.293,-49.316,-40.039,-3.906,26707.060
1652668546.144,-95.215,-482.910,-66.895,-69.824,-12.207,26707.064
1652668546.148,-48.340,-1000.000,-63.477,-21.973,260.254,26707.068
1652668546.152,30.273,-330.078,-58.594,18.066,222.656,26707.071
1652668546.169,-14.160,372.559,-25.879,-13.184,-65.430,26707.074
1652668546.173,-78.125,38.086,9.766,-44.922,-194.336,26707.078
1652668546.177,-24.414,99.121,13.184,-8.301,-207.520,26707.082
1652668546.181,29.297,374.512,-23.438,13.672,-170.898,26707.086
1652668546.185,-21.484,305.664,-52.734,-32.715,-91.309,26707.090
1652668546.189,-120.117,-177.246,-70.801,-93.750,-26.367,26707.094
1652668546.193,-120.117,-228.516,-78.125,-87.891,-83.496,26707.098
1652668546.196,-19.531,175.781,-67.383,-13.672,-83.984,26707.102
1652668546.200,7.812,167.969,-74.707,-2.930,-18.555,26707.105
1652668546.204,-84.473,-662.598,-83.984,-62.988,207.031,26707.109
1652668546.208,-105.957,-498.047,-55.664,-67.871,120.117,26707.113
1652668546.212,-21.973,425.293,-34.668,-8.789,-101.562,26707.117
1652668546.214,46.875,250.488,-38.574,34.668,25.879,26707.119
1652668546.218,-19.043,97.656,-33.691,-16.602,14.648,26707.123
1652668546.222,-89.355,322.754,-30.273,-60.547,-110.352,26707.127
1652668546.226,-34.668,364.746,-39.062,-25.391,-119.629,26707.131
1652668546.230,44.434,140.625,-50.781,25.391,-3.906,26707.135
1652668546.234,-27.344,-111.816,-73.242,-32.227,60.059,26707.139
1652668546.238,-121.582,-134.277,-87.891,-108.887,-10.254,26707.143
1652668546.241,-73.730,-102.539,-70.312,-66.895,-76.660,26707.147
1652668546.245,17.090,-422.852,-54.199,5.371,107.910,26707.151
1652668546.249,4.395,-935.547,-52.246,-7.812,304.199,26707.155
1652668546.253,-86.914,-324.707,-66.895,-73.730,25.879,26707.158
1652668546.257,-79.590,62.500,-57.617,-56.641,-159.180,26707.162
1652668546.259,12.695,-195.312,-46.387,15.137,-8.301,26707.164
1652668546.263,19.043,157.227,-70.312,9.766,44.434,26707.168
1652668546.267,-81.543,480.469,-78.613,-70.801,-89.355,26707.172
1652668546.271,-121.582,181.641,-70.312,-92.773,-190.918,26707.176
1652668546.275,-41.504,24.902,-43.945,-22.949,-133.789,26707.179
1652668546.279,57.617,84.473,1.465,48.340,-49.805,26707.183
1652668546.283,-25.391,-30.273,-29.785,-24.414,-73.730,26707.187
1652668546.286,-121.582,-90.332,-79.102,-98.145,-142.090,26707.191
1652668546.290,-78.613,-592.773,-69.824,-59.082,77.148,26707.195
1652668546.294,18.555,-269.531,-47.363,8.789,104.004,26707.199
1652668546.298,-2.441,513.184,-48.340,-10.742,-86.426,26707.203
1652668546.302,-93.750,157.715,-61.035,-70.312,-79.590,26707.207
1652668546.304,-78.613,-34.180,-73.730,-47.363,-145.508,26707.209
1652668546.308,-3.418,262.695,-72.266,-1.953,-144.531,26707.213
1652668546.312,-7.812,186.523,-66.406,-20.996,-8.789,26707.217
1652668546.316,-95.703,-278.320,-71.289,-73.242,33.203,26707.221
1652668546.320,-98.633,-375.488,-54.199,-67.871,-83.008,26707.225
1652668546.324,-4.883,-81.543,-35.156,-4.883,-106.445,26707.229
1652668546.328,33.691,-1.465,-32.227,13.672,18.555,26707.232
1652668546.331,-50.781,-400.879,-41.504,-52.734,88.867,26707.236
1652668546.335,-89.355,-1000.000,-41.016,-68.848,251.465,26707.240
1652668546.339,-35.156,-292.969,-53.711,-31.738,73.242,26707.244
1652668546.343,20.508,439.941,-64.453,-1.465,-84.961,26707.248
1652668546.347,-15.625,156.738,-44.922,-20.020,-75.684,26707.252
1652668546.349,-76.172,182.617,-43.945,-47.852,-116.699,26707.254
1652668546.353,-49.805,401.855,-36.133,-23.926,-139.648,26707.258
1652668546.357,13.184,305.664,-39.551,12.207,-95.215,26707.262
1652668546.361,-15.137,147.461,-57.129,-20.020,-30.762,26707.266
1652668546.365,-90.332,175.293,-52.734,-69.824,-103.027,26707.270
1652668546.369,-83.984,14.160,-59.570,-50.781,-109.863,26707.273
1652668546.373,8.301,-4.395,-56.152,18.066,38.086,26707.277
1652668546.376,41.992,-603.027,-37.598,38.574,327.148,26707.281
1652668546.380,-33.203,-709.473,-34.668,-5.859,234.375,26707.285
1652668546.384,-68.359,225.098,-47.852,-29.785,-109.863,26707.289
1652668546.388,10.254,191.406,-44.434,30.762,-52.734,26707.293
1652668546.392,75.195,129.395,-34.180,65.918,39.062,26707.297
1652668546.394,-7.812,370.117,-48.828,-9.277,-74.219,26707.312
1652668546.398,-80.078,344.727,-68.848,-56.641,-167.969,26707.316
1652668546.402,-35.156,45.898,-81.055,-14.648,-73.242,26707.320
1652668546.406,37.109,66.895,-74.707,28.320,-13.184,26707.323
1652668546.410,-15.137,309.570,-59.570,-20.508,-80.078,26707.327
1652668546.414,-107.910,82.520,-61.035,-77.148,-113.770,26707.331
1652668546.418,-78.613,-498.047,-52.734,-48.340,59.082,26707.335
1652668546.421,18.066,-862.793,-37.109,26.855,261.719,26707.339
1652668546.425,19.531,-337.891,-49.805,13.184,79.102,26707.343
1652668546.429,-76.660,25.879,-62.012,-62.012,-164.062,26707.347
1652668546.433,-86.914,-501.953,-52.734,-48.828,-58.105,26707.351
1652668546.437,-1.953,-523.926,-51.270,3.906,52.246,26707.355
1652668546.439,6.836,344.238,-67.871,-19.043,-72.266,26707.358
1652668546.443,-63.477,313.477,-60.547,-61.523,-104.980,26707.362
1652668546.447,-81.543,48.828,-45.410,-58.594,-105.469,26707.366
1652668546.451,-32.227,243.652,-60.059,-26.855,-57.617,26707.370
1652668546.455,36.621,422.852,-73.730,5.371,-27.344,26707.373
1652668546.459,-21.973,84.961,-79.102,-32.715,-19.531,26707.377
1652668546.463,-103.027,-577.637,-70.801,-75.684,178.223,26707.381
1652668546.466,-58.105,-251.465,-60.059,-48.340,143.555,26707.385
1652668546.470,19.043,512.207,-68.848,-2.930,-19.531,26707.389
1652668546.474,-20.508,254.883,-68.359,-33.691,11.230,26707.393
1652668546.478,-102.051,-113.281,-70.312,-86.426,-42.969,26707.397
1652668546.482,-77.637,-39.062,-68.359,-56.641,-80.078,26707.401
1652668546.500,15.137,338.867,-47.363,12.695,-35.156,26707.406
1652668546.504,3.418,109.863,-55.664,-3.906,45.410,26707.410
1652668546.508,-88.867,-316.406,-74.219,-63.477,-0.488,26707.413
1652668546.512,-97.168,112.305,-80.078,-61.035,-146.484,26707.417
1652668546.516,-22.461,313.965,-91.309,-9.766,-136.719,26707.421
1652668546.520,23.438,-160.156,-80.078,16.113,116.211,26707.425
1652668546.524,-57.617,-484.863,-73.242,-41.992,118.164,26707.429
1652668546.527,-104.492,-227.539,-75.684,-70.312,-63.477,26707.433
1652668546.531,-33.203,-35.156,-56.641,-18.555,-73.730,26707.437
1652668546.535,16.602,-381.348,-46.875,7.324,94.727,26707.441
1652668546.539,-50.781,-709.961,-58.594,-56.152,202.148,26707.445
1652668546.543,-111.328,18.555,-65.430,-91.309,-57.129,26707.449
1652668546.544,-64.941,97.168,-62.500,-36.621,-125.000,26707.449
1652668546.548,40.527,-64.941,-50.293,37.109,-76.660,26707.453
1652668546.552,22.949,30.762,-60.547,10.254,2.441,26707.457
1652668546.556,-83.984,205.078,-73.242,-69.824,-84.473,26707.461
1652668546.560,-94.727,185.547,-66.406,-68.359,-170.898,26707.465
1652668546.564,-18.555,-250.000,-66.406,-19.043,-19.531,26707.469
1652668546.568,8.301,-265.137,-60.059,-18.066,7.812,26707.473
1652668546.571,-88.379,111.816,-78.613,-88.867,-127.441,26707.477
1652668546.575,-111.816,168.457,-97.656,-89.355,-195.312,26707.480
1652668546.579,-30.762,-698.242,-83.008,-13.184,126.953,26707.484
1652668546.583,0.000,-653.320,-66.895,-6.836,180.176,26707.488
1652668546.587,-55.176,275.391,-55.176,-62.500,-111.328,26707.492
1652668546.589,-91.797,62.988,-44.922,-66.895,-124.512,26707.494
1652668546.593,-31.738,-21.973,-43.457,-12.207,-80.078,26707.498
1652668546.597,29.297,352.539,-42.969,18.555,-67.383,26707.502
1652668546.601,-31.738,395.508,-44.434,-37.109,-81.543,26707.506
1652668546.605,-92.285,-1.465,-49.805,-71.289,-68.848,26707.510
1652668546.609,-58.105,-270.020,-62.500,-36.621,30.273,26707.514
1652668546.613,32.227,-90.332,-62.988,12.207,80.078,26707.518
1652668546.616,0.488,-13.184,-75.684,-26.855,73.242,26707.522
1652668546.620,-118.164,-432.617,-90.820,-97.168,216.309,26707.525
1652668546.624,-116.211,-1000.000,-78.125,-85.938,428.711,26707.529
1652668546.628,-18.555,-578.125,-64.941,-22.461,238.281,26707.533
1652668546.632,20.508,262.207,-70.801,-3.418,-63.965,26707.537
1652668546.649,-56.152,105.957,-52.246,-55.176,-149.414,26707.554
1652668546.653,-86.914,155.762,-36.133,-66.895,-160.645,26707.558
1652668546.657,-4.395,383.301,-33.203,-6.836,-116.211,26707.562
1652668546.661,41.992,340.820,-42.969,22.461,-44.434,26707.566
1652668546.665,-50.781,119.629,-72.754,-42.969,-34.180,26707.570
1652668546.669,-115.234,-86.426,-89.355,-73.730,-65.430,26707.574
1652668546.673,-70.801,-151.367,-96.680,-47.363,-66.406,26707.577
1652668546.676,9.277,-13.184,-74.707,-6.348,-74.219,26707.581
1652668546.680,-16.602,-637.207,-46.875,-15.137,211.914,26707.585
1652668546.684,-91.309,-721.680,-47.852,-63.477,154.297,26707.589
1652668546.688,-63.477,263.184,-43.457,-45.410,-201.660,26707.593
1652668546.692,20.508,274.414,-34.668,15.625,-65.918,26707.597
1652668546.679,25.391,126.465,-43.945,15.625,-0.977,26707.584
1652668546.683,-56.641,305.176,-53.223,-41.504,-144.531,26707.588
1652668546.687,-94.727,387.695,-76.660,-70.312,-183.594,26707.592
1652668546.691,-17.578,53.223,-73.730,-16.113,-4.883,26707.596
1652668546.695,22.461,-75.195,-45.898,5.371,68.359,26707.600
1652668546.699,-73.242,25.391,-51.270,-70.801,-93.262,26707.604
1652668546.703,-121.094,-145.508,-57.129,-100.098,-144.531,26707.608
1652668546.706,-44.434,-385.254,-52.734,-41.504,43.945,26707.612
1652668546.710,13.672,-218.750,-84.473,-13.672,103.516,26707.616
1652668546.714,-39.551,237.305,-84.473,-57.129,-125.000,26707.620
1652668546.718,-91.797,233.398,-56.152,-75.684,-229.004,26707.623
1652668546.722,-54.199,-358.398,-73.730,-34.180,7.812,26707.627
1652668546.724,15.137,-1000.000,-83.496,13.184,389.648,26707.629
1652668546.728,-16.113,-468.262,-62.988,-29.785,232.910,26707.633
1652668546.732,-88.867,246.094,-61.523,-80.078,-120.605,26707.637
1652668546.736,-94.238,56.152,-76.660,-74.707,-99.121,26707.641
1652668546.740,-22.949,262.207,-78.613,-26.367,-61.035,26707.645
1652668546.744,-1.953,265.137,-73.242,-11.230,-16.113,26707.649
1652668546.748,-88.379,0.000,-62.988,-58.594,-9.766,26707.653
1652668546.751,-112.793,-605.957,-63.477,-59.570,92.773,26707.657
1652668546.755,-31.250,-380.371,-57.617,-13.672,89.355,26707.661
1652668546.759,13.672,515.137,-61.523,3.906,-72.754,26707.664
1652668546.763,-55.176,220.215,-63.965,-40.527,-101.562,26707.668
1652668546.767,-110.352,-9.277,-59.082,-80.566,-128.418,26707.672
1652668546.769,-59.570,319.336,-53.711,-45.898,-146.484,26707.687
1652668546.773,-0.977,473.145,-49.805,-6.836,-117.188,26707.691
1652668546.777,-49.316,-71.777,-47.363,-42.480,5.371,26707.694
1652668546.781,-108.887,-307.129,-57.129,-79.102,12.695,26707.698
1652668546.785,-73.730,213.379,-68.359,-53.711,-101.562,26707.702
1652668546.789,19.531,217.285,-66.895,9.277,-8.301,26707.706
1652668546.793,-0.488,-342.285,-57.129,0.000,179.688,26707.710
1652668546.796,-101.562,-915.039,-48.340,-63.965,249.512,26707.714
1652668546.800,-96.191,-255.859,-38.574,-61.523,-37.598,26707.718
1652668546.804,-20.508,378.418,-54.688,-16.113,-178.223,26707.722
1652668546.808,-9.766,-9.766,-88.867,-16.113,-29.785,26707.726
1652668546.812,-75.684,-81.543,-74.219,-51.758,-67.383,26707.730
1652668546.829,-84.961,332.031,-40.527,-44.434,-187.500,26707.734
1652668546.833,-3.906,333.008,-31.250,8.789,-117.676,26707.738
1652668546.837,33.203,197.754,-41.504,19.043,-11.230,26707.742
1652668546.841,-56.641,292.480,-55.176,-54.199,-36.621,26707.746
1652668546.845,-111.328,274.902,-53.711,-85.449,-129.395,26707.750
1652668546.849,-40.527,47.852,-46.875,-18.066,-56.152,26707.754
1652668546.853,32.227,-480.469,-64.941,31.738,228.027,26707.758
1652668546.856,-4.883,-495.605,-59.082,-6.348,104.980,26707.762
1652668546.860,-80.566,186.523,-56.641,-53.711,-200.684,26707.766
1652668546.864,-88.867,50.293,-93.262,-60.059,-184.082,26707.769
1652668546.868,-0.977,-363.770,-77.148,-0.977,-10.254,26707.773
1652668546.872,15.625,124.023,-39.062,8.301,-32.715,26707.777
1652668546.859,-66.406,426.270,-37.598,-44.922,-146.973,26707.779
1652668546.863,-77.637,90.820,-68.359,-45.898,-100.098,26707.782
1652668546.867,-4.883,7.812,-68.848,-3.418,-47.363,26707.786
1652668546.871,14.648,343.262,-51.270,3.906,-49.316,26707.790
1652668546.875,-84.961,329.590,-80.078,-65.918,-99.121,26707.794
1652668546.879,-111.328,-121.582,-70.801,-65.918,-86.914,26707.798
1652668546.883,-26.367,-314.941,-43.457,-3.418,-20.996,26707.802
1652668546.886,23.926,-144.531,-51.758,11.230,6.836,26707.806
1652668546.890,-40.039,-82.031,-57.129,-41.016,-79.590,26707.810
1652668546.894,-90.332,-458.008,-55.664,-61.523,-38.086,26707.814
1652668546.898,-56.152,-1000.000,-62.012,-24.414,245.605,26707.818
1652668546.902,1.465,-538.574,-62.500,-1.465,194.824,26707.822
1652668546.919,-41.504,200.684,-49.316,-52.734,-120.605,26707.824
1652668546.923,-103.516,-13.672,-24.414,-84.473,-236.328,26707.828
1652668546.927,-70.312,109.863,-25.879,-34.668,-207.031,26707.832
1652668546.931,7.324,407.227,-41.992,17.578,-135.254,26707.836
1652668546.935,-2.930,299.805,-52.246,-6.348,-71.777,26707.840
1652668546.939,-98.145,-212.402,-68.848,-74.219,-29.297,26707.844
1652668546.943,-119.141,-304.688,-69.824,-87.402,-27.832,26707.848
1652668546.946,-27.344,170.898,-42.480,-15.137,-62.500,26707.851
1652668546.950,10.254,260.254,-31.250,1.953,-57.617,26707.855
1652668546.954,-87.402,-445.312,-62.500,-74.219,55.176,26707.859
1652668546.958,-137.207,-244.141,-81.055,-100.098,-42.969,26707.863
1652668546.962,-53.223,170.410,-47.852,-38.574,-107.422,26707.867
1652668546.964,35.156,-144.531,-19.043,21.484,85.938,26707.869
1652668546.968,-9.766,-203.613,-25.879,-11.230,102.051,26707.873
1652668546.972,-70.801,212.402,-27.344,-49.316,-83.496,26707.877
1652668546.976,-49.805,322.266,-35.645,-30.762,-133.301,26707.881
1652668546.980,20.996,48.340,-44.922,15.137,-19.531,26707.885
1652668546.984,1.465,-187.988,-43.945,-2.930,60.059,26707.889
1652668546.988,-99.609,-181.152,-55.176,-76.660,-6.348,26707.893
1652668546.991,-100.098,-102.539,-68.848,-74.219,-100.586,26707.897
1652668546.995,-16.602,-417.969,-71.289,-19.043,55.664,26707.901
1652668546.999,-8.301,-977.051,-65.918,-24.902,357.910,26707.905
1652668547.003,-74.219,-312.988,-48.340,-69.824,104.492,26707.908
1652668547.007,-77.637,246.582,-49.316,-58.594,-179.199,26707.912
1652668547.009,-2.930,71.289,-54.199,-3.906,-94.238,26707.915
1652668547.013,42.969,184.082,-43.945,22.949,-75.195,26707.918
1652668547.017,-31.250,84.473,-48.828,-32.715,-122.070,26707.922
1652668547.021,-80.566,-15.625,-39.551,-63.965,-151.855,26707.926
1652668547.025,-21.484,-156.738,-23.926,-18.066,-53.711,26707.930
1652668547.029,26.367,-147.461,-42.969,9.277,70.801,26707.934
1652668547.033,-43.945,-103.516,-62.500,-48.340,65.918,26707.938
1652668547.036,-115.723,-159.180,-58.105,-89.844,-51.758,26707.942
1652668547.040,-75.195,-593.262,-56.641,-48.828,111.816,26707.946
1652668547.044,-2.441,-305.664,-73.730,-7.812,157.715,26707.950
1652668547.048,-12.695,470.215,-62.500,-28.809,-102.051,26707.954
1652668547.052,-96.191,77.148,-47.363,-84.473,-155.762,26707.958
1652668547.054,-110.840,-79.590,-67.383,-90.820,-131.348,26707.960
1652668547.058,-12.207,333.008,-65.430,-19.043,-104.492,26707.964
1652668547.062,9.277,472.168,-61.035,-6.348,-35.156,26707.968
1652668547.066,-74.219,153.809,-63.477,-65.430,-42.480,26707.972
1652668547.070,-100.098,-82.520,-62.012,-77.637,-119.629,26707.976
1652668547.074,-38.574,-35.156,-64.941,-33.691,-46.875,26707.980
1652668547.078,14.160,17.578,-63.965,-12.207,36.133,26707.984
1652668547.081,-60.059,-338.867,-66.406,-63.965,102.051,26707.988
1652668547.085,-129.883,-1000.000,-69.336,-96.680,384.277,26707.992
1652668547.089,-82.031,-645.508,-69.824,-69.824,266.602,26707.996
1652668547.093,-25.879,273.438,-68.848,-43.945,-45.898,26708.000
1652668547.097,-75.195,229.492,-66.406,-84.961,-82.520,26708.003
1652668547.099,-153.320,195.312,-69.824,-138.184,-142.090,26708.004
1652668547.103,-142.578,386.719,-63.965,-129.883,-193.848,26708.008
1652668547.107,-68.359,263.184,-43.457,-82.031,-155.762,26708.012
1652668547.111,-81.055,114.258,-38.086,-95.703,-69.336,26708.016
1652668547.115,-180.176,179.688,-56.152,-166.504,-112.305,26708.020
1652668547.119,-212.891,-1.465,-55.664,-186.523,-155.273,26708.024
1652668547.123,-159.180,-103.516,-49.805,-149.902,-83.496,26708.028
1652668547.126,-140.137,-564.941,-59.082,-143.066,176.758,26708.032
1652668547.130,-228.027,-623.535,-69.336,-206.055,197.754,26708.035
1652668547.134,-270.996,160.645,-78.613,-234.863,-110.840,26708.039
1652668547.138,-208.496,82.031,-78.125,-191.406,-122.559,26708.043
1652668547.142,-147.461,-176.270,-69.824,-162.598,55.664,26708.047
1652668547.144,-185.059,178.223,-56.641,-201.172,-62.500,26708.050
1652668547.148,-251.953,266.113,-60.547,-237.305,-212.402,26708.054
1652668547.152,-214.844,16.113,-55.664,-195.312,-113.770,26708.057
1652668547.156,-116.699,86.914,-42.480,-128.906,25.391,26708.061
1652668547.160,-143.555,289.551,-72.266,-153.320,-27.832,26708.065
1652668547.164,-228.027,-10.254,-89.355,-207.520,-80.566,26708.069
1652668547.168,-234.375,-516.113,-90.332,-202.148,104.492,26708.073
1652668547.171,-129.395,-861.816,-73.242,-122.559,356.445,26708.077
1652668547.175,-83.984,-272.949,-39.062,-97.168,168.457,26708.081
1652668547.179,-172.363,240.234,-38.086,-162.109,-108.398,26708.085
1652668547.183,-187.500,-153.320,-59.082,-163.574,-69.336,26708.089
1652668547.187,-85.938,-292.480,-64.941,-82.031,56.641,26708.093
1652668547.190,-46.875,227.539,-65.918,-66.895,24.902,26708.107
1652668547.194,-100.586,323.242,-56.152,-98.633,-117.676,26708.111
1652668547.198,-115.234,-138.672,-65.918,-86.426,-74.707,26708.114
1652668547.202,-75.195,-28.809,-93.262,-63.965,-26.855,26708.118
1652668547.206,10.254,310.547,-69.824,-9.766,-90.332,26708.122
1652668547.210,-8.789,100.098,-37.598,-16.602,-71.777,26708.126
1652668547.214,-95.215,-625.000,-41.504,-69.824,167.480,26708.130
1652668547.217,-73.242,-487.793,-67.871,-50.781,86.426,26708.134
1652668547.221,8.301,366.699,-76.172,7.812,-134.766,26708.138
1652668547.225,12.695,208.984,-56.152,9.766,-55.176,26708.142
1652668547.229,-24.414,27.344,-31.738,-0.488,-63.965,26708.146
1652668547.233,-35.156,257.324,-43.945,-1.465,-128.418,26708.150
1652668547.234,20.020,433.594,-65.918,24.902,-71.777,26708.154
1652668547.238,35.645,197.754,-85.449,24.414,0.000,26708.158
1652668547.242,-58.105,-195.312,-89.355,-44.922,5.371,26708.161
1652668547.246,-64.453,32.715,-65.918,-31.738,-66.895,26708.165
1652668547.250,26.367,347.656,-75.195,43.457,-119.141,26708.169
1652668547.254,54.199,-154.297,-83.496,54.688,114.258,26708.173
1652668547.258,-33.203,-885.254,-78.125,-13.672,325.684,26708.177
1652668547.261,-47.852,-494.629,-47.852,-14.648,103.027,26708.181
1652668547.265,29.297,78.613,-36.621,54.199,-89.844,26708.185
1652668547.269,82.520,-329.590,-47.852,90.820,87.402,26708.189
1652668547.273,19.043,-498.535,-36.621,27.832,93.750,26708.193
1652668547.277,-88.379,209.961,-51.270,-57.129,-157.715,26708.197
1652668547.294,-62.500,286.133,-69.336,-30.762,-128.418,26708.199
1652668547.298,33.691,141.602,-69.336,37.598,-59.570,26708.203
1652668547.302,28.809,281.738,-62.012,24.902,-29.785,26708.207
1652668547.306,-47.363,380.859,-53.223,-20.020,-113.281,26708.211
1652668547.310,-47.363,133.301,-72.266,-6.836,-142.090,26708.215
1652668547.314,35.645,-216.797,-81.543,45.898,57.617,26708.219
1652668547.318,76.660,-146.973,-35.645,73.242,105.469,26708.223
1652668547.321,-12.207,-78.125,-39.551,21.484,-3.906,26708.226
1652668547.325,-65.918,-72.266,-79.102,-13.672,-85.449,26708.230
1652668547.329,20.996,-662.109,-56.152,56.641,176.270,26708.234
1652668547.333,81.055,-506.348,-41.992,82.520,194.824,26708.238
1652668547.337,-9.277,387.207,-81.055,-16.113,-116.211,26708.242
1652668547.339,-69.824,112.793,-82.031,-47.363,-106.934,26708.245
1652668547.343,3.906,-20.996,-45.410,17.578,-90.820,26708.249
1652668547.347,79.590,316.895,-43.945,59.082,-76.172,26708.252
1652668547.351,9.277,363.770,-85.938,0.488,-85.449,26708.256
1652668547.355,-67.871,22.461,-94.238,-43.945,-123.047,26708.260
1652668547.359,-26.855,-257.812,-48.828,3.906,-71.289,26708.264
1652668547.363,48.828,-142.090,-41.504,47.852,24.414,26708.268
1652668547.366,39.551,-64.941,-62.012,18.555,33.691,26708.272
1652668547.370,-45.410,-454.102,-48.340,-30.273,47.363,26708.276
1652668547.374,-53.223,-1000.000,-42.969,-20.508,269.531,26708.280
1652668547.378,31.250,-597.168,-62.988,26.855,168.457,26708.284
1652668547.382,66.895,308.105,-54.688,39.551,-46.387,26708.288
1652668547.384,-18.066,125.488,-54.688,-12.695,-103.516,26708.289
1652668547.388,-87.402,119.629,-88.379,-54.199,-145.996,26708.293
1652668547.392,4.883,420.410,-56.152,20.996,-117.676,26708.297
1652668547.396,79.590,368.652,-41.016,65.430,-63.477,26708.301
1652668547.400,-21.484,119.141,-66.406,-28.809,-22.461,26708.305
1652668547.404,-93.750,-98.633,-65.918,-74.707,-13.184,26708.309
1652668547.408,-57.129,-135.742,-79.102,-37.109,-2.930,26708.313
1652668547.411,14.160,34.668,-77.637,7.324,9.766,26708.317
1652668547.415,-2.930,-511.719,-53.711,-1.953,131.348,26708.321
1652668547.419,-76.172,-437.500,-49.805,-37.598,25.391,26708.324
1652668547.423,-67.871,303.223,-59.082,-25.879,-231.934,26708.328
1652668547.427,26.855,-28.320,-49.316,40.527,-87.402,26708.332
1652668547.429,51.758,-243.164,-31.250,41.992,49.805,26708.334
1652668547.433,-33.691,188.477,-45.410,-23.438,-118.164,26708.338
1652668547.437,-64.453,336.426,-67.871,-33.203,-156.250,26708.342
1652668547.441,-6.348,73.730,-59.570,5.371,-21.973,26708.346
1652668547.445,24.414,9.277,-50.293,17.578,-0.977,26708.350
1652668547.449,-54.688,-12.695,-54.688,-44.434,-7.324,26708.354
1652668547.453,-108.398,-164.062,-64.453,-78.125,-36.621,26708.358
1652668547.456,-40.039,-426.758,-63.965,-16.113,114.258,26708.362
1652668547.460,36.621,-990.234,-61.523,39.062,425.781,26708.366
1652668547.464,-13.184,-346.191,-61.035,-14.648,180.664,26708.370
1652668547.468,-70.312,317.383,-57.617,-40.039,-126.465,26708.374
1652668547.472,-35.156,81.055,-68.359,-10.742,-89.844,26708.377
1652668547.474,47.852,239.746,-58.105,28.809,-26.367,26708.379
1652668547.478,25.391,374.023,-55.664,13.672,-121.582,26708.383
1652668547.482,-82.520,29.297,-55.664,-56.152,-138.184,26708.387
1652668547.486,-92.773,-282.715,-54.199,-62.500,-18.555,26708.391
1652668547.490,1.953,17.578,-64.941,1.953,-15.137,26708.395
1652668547.494,24.902,154.297,-71.777,4.883,-45.410,26708.399
1652668547.498,-54.688,-154.297,-48.340,-43.457,-135.742,26708.403
1652668547.501,-85.938,-730.469,-50.781,-46.387,-14.160,26708.407
1652668547.505,-28.809,-440.918,-81.543,-16.113,18.555,26708.411
1652668547.509,20.020,419.922,-73.730,12.207,-102.539,26708.415
1652668547.513,-37.598,169.922,-59.082,-27.344,-82.520,26708.418
1652668547.517,-73.730,-97.656,-54.199,-41.992,-100.098,26708.422
1652668547.519,-25.879,166.016,-63.965,-2.441,-142.090,26708.437
1652668547.523,23.438,370.605,-81.543,16.602,-88.379,26708.441
1652668547.527,-18.555,81.543,-68.848,-21.484,-33.203,26708.445
1652668547.531,-62.500,-82.031,-52.734,-49.316,-104.492,26708.449
1652668547.535,-10.742,64.941,-32.227,-2.930,-152.832,26708.453
1652668547.539,45.898,-0.977,-25.879,35.645,-59.570,26708.457
1652668547.543,-13.672,-408.203,-60.059,-18.555,217.285,26708.461
1652668547.546,-131.836,-902.344,-70.801,-103.027,367.188,26708.465
1652668547.550,-123.047,-507.812,-60.547,-90.820,93.262,26708.468
1652668547.554,-4.395,79.102,-54.688,-5.859,-70.801,26708.472
1652668547.558,5.859,-305.176,-63.965,-12.207,102.051,26708.476
1652668547.562,-88.867,-549.805,-75.195,-81.055,93.262,26708.480
1652668547.564,-95.215,216.797,-63.965,-79.590,-168.457,26708.483
1652668547.568,-25.391,298.828,-61.523,-22.461,-140.137,26708.487
1652668547.572,27.344,101.074,-66.406,15.625,-26.855,26708.491
1652668547.576,-22.949,190.430,-58.594,-23.926,-86.426,26708.495
1652668547.580,-81.055,220.703,-39.062,-56.152,-191.406,26708.498
1652668547.584,-41.992,23.926,-46.387,-23.438,-125.488,26708.502
1652668547.588,22.949,-583.496,-69.336,13.672,204.102,26708.506
1652668547.591,-31.738,-462.891,-86.426,-37.598,171.875,26708.510
1652668547.595,-97.656,126.953,-79.590,-81.543,-103.516,26708.514
1652668547.599,-64.941,-134.766,-62.012,-51.758,-87.402,26708.518
1652668547.603,0.000,-482.422,-72.266,-11.719,79.102,26708.522
1652668547.607,-11.719,-27.832,-78.613,-32.715,63.477,26708.526
1652668547.609,-92.773,376.465,-58.105,-83.984,-134.766,26708.529
1652668547.613,-83.496,4.883,-30.273,-48.340,-127.441,26708.532
1652668547.617,3.418,-2.930,-27.832,8.301,-59.570,26708.536
1652668547.621,35.645,345.215,-44.922,3.418,-69.824,26708.540
1652668547.625,-56.641,292.480,-77.148,-73.730,-120.605,26708.544
1652668547.629,-101.074,-384.277,-88.379,-90.820,-11.719,26708.548
1652668547.633,-26.367,-583.008,-68.359,-27.344,59.082,26708.552
1652668547.636,40.039,-134.277,-45.410,14.160,45.898,26708.556
1652668547.640,-9.277,-2.441,-37.109,-28.809,-44.922,26708.560
1652668547.644,-78.613,-481.934,-53.711,-69.824,-5.371,26708.564
1652668547.648,-52.734,-793.457,-85.449,-45.898,159.180,26708.568
1652668547.652,17.090,-143.555,-91.309,-15.137,12.695,26708.572
1652668547.669,14.160,162.109,-44.434,-20.020,-89.844,26708.587
1652668547.673,-61.523,-167.480,-21.484,-56.152,-105.469,26708.591
1652668547.677,-68.359,-129.395,-47.363,-51.270,-141.113,26708.595
1652668547.681,14.160,313.965,-57.617,2.930,-153.809,26708.598
1652668547.685,25.879,248.535,-45.898,9.766,-58.105,26708.602
1652668547.689,-65.918,-189.453,-47.852,-53.711,29.785,26708.606
1652668547.693,-87.402,-310.547,-49.805,-65.430,-56.641,26708.610
1652668547.696,-8.789,145.020,-53.711,-10.254,-153.809,26708.614
1652668547.700,21.973,190.918,-60.547,-1.953,-89.844,26708.618
1652668547.704,-62.012,-526.367,-56.641,-66.895,42.480,26708.622
1652668547.708,-106.445,-263.184,-64.453,-83.496,-30.273,26708.626
1652668547.712,-32.715,335.938,-63.477,-18.555,-142.090,26708.630
1652668547.714,37.109,116.211,-36.621,26.855,-36.621,26708.619
1652668547.718,-28.809,13.184,-32.227,-29.785,4.395,26708.623
1652668547.722,-94.727,-56.152,-60.059,-77.148,-68.848,26708.627
1652668547.726,-32.715,66.895,-44.922,-14.648,-98.145,26708.631
1652668547.730,29.785,-58.594,-56.152,30.273,49.316,26708.635
1652668547.734,-2.441,-481.934,-55.176,-7.812,123.535,26708.639
1652668547.738,-73.242,-318.359,-35.645,-61.035,-33.691,26708.643
1652668547.741,-85.449,-214.355,-49.805,-63.477,-126.465,26708.647
1652668547.745,12.207,-510.254,-49.805,13.672,81.055,26708.650
1652668547.749,48.828,-573.730,-62.988,28.809,240.723,26708.654
1652668547.753,-60.059,130.859,-72.266,-62.012,-41.992,26708.658
1652668547.757,-104.492,298.828,-67.871,-89.844,-204.102,26708.662
1652668547.759,-42.480,-400.879,-63.477,-46.387,47.363,26708.677
1652668547.763,23.926,-427.246,-46.875,-10.742,189.453,26708.681
1652668547.767,-45.898,357.910,-53.711,-62.988,-25.391,26708.685
1652668547.771,-106.934,232.910,-55.176,-93.750,-115.234,26708.689
1652668547.775,-52.734,-40.039,-66.895,-56.152,-65.918,26708.693
1652668547.779,0.977,-48.828,-86.914,-24.414,54.199,26708.697
1652668547.783,-43.457,-109.375,-87.891,-59.570,-15.625,26708.701
1652668547.786,-106.934,-127.441,-62.012,-97.656,-110.840,26708.705
1652668547.790,-69.824,-694.824,-33.203,-48.340,184.570,26708.708
1652668547.794,16.602,-726.562,-42.480,5.371,236.328,26708.712
1652668547.798,6.836,255.859,-62.500,-22.949,-86.914,26708.716
1652668547.802,-94.727,162.598,-76.172,-90.820,-93.262,26708.720
1652668547.804,-111.328,-94.238,-75.195,-98.633,-40.039,26708.709
1652668547.808,-17.090,280.762,-46.875,-22.949,-112.793,26708.713
1652668547.812,21.484,373.535,-35.156,0.000,-132.812,26708.717
1652668547.816,-68.359,9.277,-57.617,-66.895,-102.539,26708.721
1652668547.820,-103.516,-81.055,-53.223,-78.613,-104.004,26708.725
1652668547.824,-18.555,-18.555,-46.387,-12.207,-118.164,26708.729
1652668547.828,33.203,-14.160,-69.824,14.160,-25.879,26708.732
1652668547.831,-37.598,-438.477,-78.125,-30.273,195.801,26708.736
1652668547.835,-90.820,-807.617,-47.363,-56.641,198.242,26708.740
1652668547.839,-38.574,-150.391,-26.367,-26.367,-43.945,26708.744
1652668547.843,31.250,375.000,-47.363,14.160,-126.465,26708.748
1652668547.847,-10.742,-250.977,-57.129,-26.367,-6.348,26708.752
1652668547.849,-113.281,-1000.000,-80.566,-95.703,175.781,26708.754
1652668547.853,-79.590,-201.660,-64.453,-64.453,-11.719,26708.758
1652668547.857,31.250,343.750,-20.508,20.996,-113.770,26708.762
1652668547.861,3.418,147.949,-47.363,-5.371,-51.270,26708.766
1652668547.865,-99.121,204.102,-60.059,-79.590,-113.281,26708.770
1652668547.869,-82.520,21.973,-49.805,-54.199,-114.746,26708.774
1652668547.873,6.348,-56.152,-51.758,10.742,-7.324,26708.778
1652668547.876,22.949,-510.254,-59.082,17.578,246.094,26708.782
1652668547.880,-58.105,-402.832,-68.848,-50.293,144.043,26708.785
1652668547.884,-95.215,351.562,-62.500,-77.148,-180.664,26708.789
1652668547.888,-24.414,156.738,-47.852,-17.090,-133.301,26708.793
1652668547.892,29.297,-78.613,-59.570,15.137,79.590,26708.797
1652668547.895,-26.367,151.367,-41.504,-30.762,40.527,26708.801
1652668547.899,-78.125,381.836,-17.578,-60.547,-185.547,26708.805
1652668547.903,-41.504,-38.086,-32.227,-29.785,-83.496,26708.808
1652668547.907,32.715,-278.320,-43.457,15.625,44.434,26708.812
1652668547.911,-0.977,169.922,-56.152,-26.367,-39.551,26708.816
1652668547.915,-98.633,86.426,-79.590,-95.215,-97.168,26708.820
1652668547.919,-78.125,-483.887,-62.012,-51.758,55.664,26708.824
1652668547.922,19.043,-918.945,-42.969,24.902,304.688,26708.828
1652668547.926,15.137,-208.008,-51.758,-5.371,61.035,26708.832
1652668547.930,-81.543,306.641,-49.805,-75.195,-189.941,26708.836
1652668547.934,-109.863,-223.145,-60.059,-85.449,-132.812,26708.840
1652668547.938,-40.039,-192.383,-73.730,-43.945,-87.402,26708.844
1652668547.939,28.320,390.625,-57.129,0.977,-94.727,26708.858
1652668547.943,-34.668,297.363,-33.203,-33.691,-85.938,26708.862
1652668547.947,-106.934,-182.617,-53.223,-80.566,-130.859,26708.865
1652668547.951,-49.805,-41.504,-63.477,-41.992,-111.816,26708.869
1652668547.955,24.414,338.379,-58.105,4.883,-38.086,26708.873
1652668547.959,-15.625,143.555,-42.969,-28.320,-23.926,26708.877
1652668547.963,-92.285,-657.715,-42.480,-70.312,205.078,26708.881
1652668547.966,-67.871,-730.469,-52.734,-47.363,211.426,26708.885
1652668547.970,27.832,253.418,-34.668,10.254,-81.543,26708.889
1652668547.974,9.277,250.488,-33.203,-5.371,-58.105,26708.893
1652668547.978,-93.262,-8.789,-56.641,-79.102,-72.266,26708.897
1652668547.982,-72.754,204.102,-58.594,-57.129,-115.723,26708.901
1652668547.982,-72.754,204.102,-58.594,-57.129,-115.723,26708.901
1652668547.984,21.973,372.070,-40.527,10.254,-58.105,26708.904
1652668547.988,40.039,152.832,-33.203,14.648,-30.273,26708.907
1652668547.992,-47.852,-53.223,-56.152,-45.898,-82.031,26708.911
1652668547.996,-105.957,193.848,-75.195,-83.496,-129.395,26708.915
1652668548.000,-35.156,241.699,-62.012,-30.273,-111.328,26708.919
1652668548.004,31.250,-268.066,-56.641,24.902,108.887,26708.923
1652668548.008,-41.016,-562.988,-51.270,-31.250,180.176,26708.927
1652668548.011,-104.004,-286.621,-40.039,-84.961,-36.133,26708.931
1652668548.015,-53.711,-152.344,-42.969,-47.852,-71.289,26708.935
1652668548.019,17.578,-463.867,-62.500,-5.371,171.875,26708.939
1652668548.023,-15.137,-1000.000,-55.664,-31.250,327.148,26708.943
1652668548.027,-78.613,-309.082,-47.852,-73.242,33.691,26708.947
1652668548.044,-50.781,258.789,-50.781,-44.922,-175.293,26708.949
1652668548.048,31.738,104.492,-53.223,13.184,-82.520,26708.953
1652668548.052,33.203,212.891,-49.316,14.160,-51.270,26708.957
1652668548.056,-72.754,301.758,-62.988,-61.523,-125.977,26708.961
1652668548.060,-91.309,176.270,-72.754,-77.148,-158.203,26708.965
1652668548.064,9.766,-169.434,-41.016,7.812,-2.441,26708.969
1652668548.068,24.414,-162.109,-37.598,5.859,127.441,26708.973
1652668548.071,-76.172,125.488,-54.688,-84.473,-54.199,26708.977
1652668548.075,-94.727,76.660,-53.223,-80.078,-138.672,26708.980
1652668548.079,-24.902,-736.328,-56.641,-14.160,163.574,26708.984
1652668548.083,6.836,-541.016,-72.754,-16.113,163.086,26708.988
1652668548.087,-25.391,362.305,-48.828,-37.598,-127.930,26708.992
1652668548.089,-74.219,31.250,-52.246,-46.387,-167.969,26708.994
1652668548.093,-52.734,-153.809,-65.918,-28.320,-168.457,26708.998
1652668548.097,40.039,252.930,-20.020,27.832,-157.715,26709.002
1652668548.101,7.324,336.426,-18.555,-11.719,-160.156,26709.006
1652668548.105,-71.289,-3.418,-42.969,-53.223,-114.746,26709.010
1652668548.109,-53.711,-322.266,-45.410,-29.785,-24.902,26709.014
1652668548.113,-4.395,-179.199,-68.848,-10.254,-20.996,26709.018
1652668548.116,-7.812,23.926,-84.473,-29.297,25.391,26709.022
1652668548.120,-80.078,-385.254,-62.988,-74.707,114.746,26709.025
1652668548.124,-94.238,-1000.000,-50.781,-65.918,249.023,26709.029
1652668548.128,-7.812,-332.520,-51.758,-6.836,89.844,26709.033
1652668548.132,39.551,233.887,-48.828,14.648,-60.547,26709.037
1652668548.133,-32.227,-275.879,-40.039,-36.133,-33.203,26709.039
1652668548.137,-88.379,-172.852,-45.410,-74.219,-145.996,26709.043
1652668548.141,-40.527,308.594,-54.688,-43.457,-183.105,26709.047
1652668548.145,40.039,276.855,-51.270,15.137,-68.359,26709.051
1652668548.149,-15.625,-8.301,-69.336,-31.738,-72.754,26709.055
1652668548.153,-98.633,-179.688,-68.359,-84.961,-102.539,26709.059
1652668548.157,-64.941,-197.266,-47.852,-42.480,-62.500,26709.063
1652668548.160,4.395,-21.484,-66.406,0.488,-52.246,26709.066
1652668548.164,-6.348,-528.320,-62.012,-12.695,144.043,26709.070
1652668548.168,-100.098,-494.141,-46.387,-72.266,48.828,26709.074
1652668548.172,-101.562,283.691,-42.969,-67.871,-194.824,26709.078
1652668548.176,1.953,139.648,-43.945,8.789,-57.129,26709.082
1652668548.179,8.301,37.598,-65.430,3.906,0.488,26709.085
1652668548.183,-64.453,247.070,-64.453,-50.293,-115.234,26709.089
1652668548.187,-45.898,113.770,-19.043,-12.207,-136.719,26709.092
1652668548.191,23.438,-300.293,-8.789,41.016,36.621,26709.096
1652668548.195,35.156,-267.090,-48.340,15.625,121.582,26709.100
1652668548.199,-65.918,-59.570,-78.125,-73.242,-46.875,26709.104
1652668548.203,-116.211,-184.570,-76.660,-93.262,-126.465,26709.108
1652668548.206,-46.387,-475.586,-65.430,-29.785,54.199,26709.112
1652668548.210,12.207,-1000.000,-56.152,3.906,356.934,26709.116
1652668548.214,-36.133,-355.957,-59.570,-49.805,190.430,26709.120
1652668548.218,-93.750,363.281,-58.594,-81.543,-121.094,26709.124
1652668548.222,-56.152,0.488,-45.410,-32.715,-129.883,26709.128
1652668548.224,48.340,11.719,-29.297,45.410,-74.707,26709.129
1652668548.228,30.762,389.160,-48.828,13.184,-92.773,26709.133
1652668548.232,-80.566,230.957,-54.688,-69.336,-160.156,26709.137
1652668548.236,-90.820,-17.090,-46.387,-64.453,-172.363,26709.141
1652668548.240,-22.461,133.301,-61.035,-16.602,-82.031,26709.145
1652668548.244,10.742,78.613,-65.918,-2.441,44.922,26709.149
1652668548.248,-64.453,-43.945,-63.477,-62.500,10.254,26709.153
1652668548.251,-104.980,-680.664,-65.918,-78.125,210.938,26709.157
1652668548.255,-30.273,-687.012,-88.379,-20.996,288.574,26709.160
1652668548.259,34.180,296.387,-68.359,21.973,-15.137,26709.164
1652668548.263,-32.715,185.059,-23.926,-28.809,-61.523,26709.168
1652668548.267,-84.473,-20.508,-17.090,-68.848,-54.199,26709.172
1652668548.269,-24.902,250.488,-31.738,-18.555,-113.281,26709.187
1652668548.273,44.434,416.504,-42.969,25.879,-72.754,26709.191
1652668548.277,-10.254,101.074,-51.270,-23.926,-18.066,26709.194
1652668548.281,-101.562,-92.285,-52.246,-96.191,-72.266,26709.198
1652668548.285,-84.473,165.527,-62.012,-75.195,-134.277,26709.202
1652668548.289,12.207,107.422,-76.172,3.418,-13.672,26709.206
1652668548.293,20.020,-377.930,-69.824,2.930,208.008,26709.210
1652668548.296,-61.523,-939.453,-54.688,-54.688,242.188,26709.214
1652668548.300,-74.219,-549.805,-48.340,-66.895,54.199,26709.218
1652668548.304,16.113,36.133,-47.363,-6.836,-55.664,26709.222
1652668548.308,67.383,-332.031,-45.898,33.203,103.516,26709.226
1652668548.312,-26.855,-512.695,-40.039,-35.156,103.027,26709.230
1652668548.313,-90.332,166.992,-50.293,-85.449,-179.199,26709.232
1652668548.317,-26.367,208.496,-46.875,-27.344,-187.500,26709.236
1652668548.321,43.945,85.449,-42.969,21.973,-87.891,26709.240
1652668548.325,-19.531,229.004,-58.594,-28.320,-87.891,26709.244
1652668548.329,-84.473,254.883,-68.359,-64.453,-175.781,26709.248
1652668548.333,-45.410,-39.062,-79.102,-36.133,-115.723,26709.252
1652668548.337,39.062,-580.078,-41.992,30.762,145.020,26709.256
1652668548.340,24.902,-312.012,-13.672,18.555,43.457,26709.259
1652668548.344,-50.293,284.180,-39.062,-39.551,-248.535,26709.263
1652668548.348,-23.926,23.438,-27.832,-4.883,-211.426,26709.267
1652668548.352,34.180,-90.332,-28.809,24.902,-63.477,26709.271
1652668548.356,-0.977,89.355,-69.824,-38.086,13.184,26709.275
1652668548.360,-76.172,146.484,-65.430,-92.773,-54.688,26709.278
1652668548.364,-91.309,-83.496,-59.082,-83.008,-78.613,26709.282
1652668548.368,-20.020,-310.059,-61.035,-23.438,14.648,26709.286
1652668548.372,25.879,190.918,-74.707,-4.395,0.000,26709.290
1652668548.376,-39.551,306.641,-64.453,-59.082,-121.094,26709.293
1652668548.380,-86.426,-353.027,-34.180,-73.242,-0.977,26709.297
1652668548.384,-41.016,-694.824,-34.180,-25.879,221.680,26709.301
1652668548.387,41.016,-193.359,-24.414,29.785,147.461,26709.305
1652668548.391,-6.836,121.582,-38.086,-10.742,-29.785,26709.309
1652668548.395,-92.773,-361.816,-67.383,-62.012,27.832,26709.313
1652668548.399,-68.359,-696.777,-69.336,-42.480,146.973,26709.317
1652668548.403,9.766,196.777,-70.312,-3.906,-9.766,26709.321
1652668548.419,3.418,385.254,-57.129,-12.207,-48.828,26709.338
1652668548.423,-78.613,34.180,-49.316,-62.988,-110.840,26709.341
1652668548.427,-66.895,-99.121,-25.879,-41.992,-118.652,26709.345
1652668548.431,12.207,73.242,-12.695,13.184,-33.203,26709.349
1652668548.435,13.184,301.270,-36.133,-0.977,-41.016,26709.353
1652668548.439,-75.684,-392.578,-69.336,-65.918,84.961,26709.357
1652668548.443,-105.469,-683.594,-67.871,-66.406,94.727,26709.361
1652668548.446,-36.621,-53.223,-56.152,-18.555,-98.145,26709.365
1652668548.450,27.344,189.941,-47.852,3.906,-31.250,26709.369
1652668548.454,-29.297,-242.188,-34.668,-33.691,75.195,26709.373
1652668548.458,-96.680,-50.781,-55.176,-69.824,-25.879,26709.377
1652668548.462,-28.809,360.352,-34.180,-16.113,-104.492,26709.380
1652668548.464,53.711,98.145,-20.508,45.410,-45.898,26709.369
1652668548.468,-1.953,24.902,-48.828,-4.883,-26.855,26709.373
1652668548.472,-92.285,267.090,-62.012,-71.777,-90.820,26709.377
1652668548.476,-91.309,319.336,-66.406,-61.523,-137.207,26709.381
1652668548.480,-11.230,33.203,-58.105,-7.324,-50.781,26709.385
1652668548.484,-10.742,-215.332,-49.805,-16.113,75.684,26709.389
1652668548.488,-95.703,-142.090,-46.387,-68.848,-16.113,26709.393
1652668548.491,-86.426,-67.871,-40.039,-52.246,-91.309,26709.397
1652668548.495,2.441,-464.355,-49.316,10.742,135.254,26709.401
1652668548.499,22.949,-629.395,-68.848,18.555,228.516,26709.404
1652668548.503,-60.059,105.957,-62.500,-53.711,-42.480,26709.408
1652668548.507,-88.379,384.277,-42.480,-63.965,-207.520,26709.412
1652668548.524,-16.113,-328.125,-26.855,0.977,-24.902,26709.430
1652668548.528,18.555,-800.781,-43.457,15.625,263.184,26709.433
1652668548.532,-68.359,23.926,-82.031,-62.012,48.340,26709.437
1652668548.536,-138.184,236.816,-90.820,-113.770,-162.598,26709.441
1652668548.540,-84.473,-25.879,-73.242,-70.312,-146.484,26709.445
1652668548.544,6.836,-21.973,-52.734,-11.719,22.949,26709.449
1652668548.548,-14.648,-53.711,-51.270,-39.062,76.172,26709.453
1652668548.551,-81.543,-78.125,-45.898,-76.660,-129.883,26709.457
1652668548.555,-35.645,-703.613,-21.484,-19.043,115.723,26709.461
1652668548.559,48.340,-665.527,-35.645,32.227,271.484,26709.465
1652668548.563,31.250,363.770,-61.523,-4.883,-40.527,26709.469
1652668548.567,-55.664,179.199,-54.688,-50.781,-153.320,26709.473
1652668548.554,-92.773,-122.559,-56.641,-66.895,-171.387,26709.459
1652668548.558,-44.922,232.422,-79.590,-43.945,-137.207,26709.463
1652668548.562,-2.930,424.316,-85.449,-14.160,-87.402,26709.467
1652668548.566,-63.965,102.539,-61.523,-62.988,-88.379,26709.471
1652668548.570,-103.516,-62.500,-42.480,-85.938,-123.535,26709.475
1652668548.574,-43.457,-30.762,-38.574,-28.809,-112.305,26709.479
1652668548.578,24.414,-73.242,-52.246,9.766,-27.832,26709.483
1652668548.581,-14.648,-318.848,-52.246,-19.531,79.590,26709.486
1652668548.585,-69.824,-354.004,-31.250,-48.340,-23.926,26709.490
1652668548.589,-39.551,133.301,-29.297,-27.344,-177.246,26709.494
1652668548.593,11.719,327.637,-55.664,0.000,-152.344,26709.498
1652668548.597,-13.672,-248.047,-80.078,-31.738,51.758,26709.502
1652668548.600,-92.285,-1000.000,-69.824,-70.801,321.289,26709.505
1652668548.604,-104.980,-577.148,-69.824,-72.754,112.793,26709.509
1652668548.608,-6.348,230.469,-73.730,-18.555,-98.633,26709.513
1652668548.612,37.109,144.043,-52.246,13.672,-65.918,26709.516
1652668548.616,-58.105,145.996,-38.086,-44.922,-101.562,26709.520
1652668548.620,-83.984,25.391,-31.738,-57.129,-134.277,26709.524
1652668548.624,-14.160,-31.738,-57.617,-14.648,-95.703,26709.528
1652668548.627,42.969,-464.355,-57.129,17.578,201.660,26709.532
1652668548.631,-9.766,-427.734,-27.344,-17.090,151.367,26709.536
1652668548.635,-94.238,312.988,-41.992,-70.312,-161.133,26709.540
1652668548.639,-60.547,181.152,-55.664,-48.340,-138.672,26709.544
1652668548.643,27.344,31.738,-49.316,5.859,-40.039,26709.548
1652668548.644,-13.672,218.750,-48.340,-28.809,-44.434,26709.561
1652668548.648,-107.910,347.656,-59.570,-92.773,-164.062,26709.565
1652668548.652,-83.496,-42.480,-51.758,-58.105,-34.180,26709.569
1652668548.656,8.789,-127.930,-38.086,8.789,98.145,26709.573
1652668548.660,12.695,263.672,-34.668,-7.324,-72.266,26709.577
1652668548.664,-53.711,57.129,-35.645,-47.852,-119.629,26709.581
1652668548.668,-58.105,-426.270,-57.617,-27.344,25.391,26709.585
1652668548.671,-5.859,-1000.000,-66.406,9.277,361.328,26709.589
1652668548.675,6.836,-462.891,-51.758,-6.836,245.117,26709.592
1652668548.679,-63.477,316.406,-50.781,-63.965,-161.133,26709.596
1652668548.683,-86.426,-16.113,-38.574,-66.406,-188.965,26709.600
1652668548.687,-19.531,24.414,-30.762,-17.090,-124.512,26709.604
1652668548.689,28.320,389.648,-50.781,5.859,-105.469,26709.608
1652668548.693,-45.898,325.195,-70.312,-56.152,-114.746,26709.612
1652668548.697,-95.703,28.809,-48.828,-71.777,-145.020,26709.616
1652668548.701,-33.691,145.020,-24.414,-14.160,-133.789,26709.620
1652668548.705,36.621,282.227,-45.898,25.879,-105.957,26709.623
1652668548.709,-11.719,23.926,-56.152,-16.113,-43.457,26709.627
1652668548.713,-94.238,-559.082,-48.828,-62.012,140.137,26709.631
1652668548.716,-74.219,-570.801,-57.129,-44.922,116.699,26709.635
1652668548.720,20.508,171.387,-50.781,4.395,-119.141,26709.639
1652668548.724,20.996,178.223,-62.012,-9.277,-87.891,26709.643
1652668548.728,-78.125,-376.465,-76.660,-77.148,30.273,26709.647
1652668548.732,-97.168,-64.941,-59.570,-82.520,-49.316,26709.651
1652668548.734,-0.977,386.719,-48.340,-14.160,-98.145,26709.654
1652668548.738,49.316,165.039,-45.898,21.973,7.812,26709.658
1652668548.742,-49.316,-50.781,-47.363,-57.617,-39.551,26709.662
1652668548.746,-98.145,87.891,-53.223,-91.309,-161.621,26709.666
1652668548.750,-28.809,264.648,-61.035,-32.715,-150.879,26709.670
1652668548.754,18.066,-157.715,-52.246,0.000,109.863,26709.673
1652668548.758,-30.273,-535.156,-21.484,-34.180,242.676,26709.677
1652668548.761,-70.801,-292.480,-22.949,-59.082,-22.461,26709.681
1652668548.765,-39.062,-198.242,-36.133,-29.297,-167.969,26709.685
1652668548.769,22.949,-468.262,-50.293,14.648,91.797,26709.689
1652668548.773,-13.672,-459.961,-72.266,-31.250,173.828,26709.693
1652668548.777,-97.168,166.992,-68.848,-90.332,-105.957,26709.697
1652668548.794,-78.125,269.043,-57.617,-58.105,-205.078,26709.699
1652668548.798,16.113,-441.406,-47.363,14.160,83.984,26709.703
1652668548.802,18.066,-618.652,-40.527,2.930,237.793,26709.707
1652668548.806,-81.543,204.102,-53.711,-73.730,-86.914,26709.711
1652668548.810,-104.492,212.891,-73.242,-72.266,-129.883,26709.715
1652668548.814,-13.184,-187.988,-63.965,-3.906,85.449,26709.719
1652668548.818,37.109,-200.684,-54.688,20.996,126.465,26709.723
1652668548.821,-37.598,168.457,-41.992,-37.109,-47.852,26709.727
1652668548.825,-83.008,167.969,-25.879,-62.012,-153.320,26709.731
1652668548.829,-30.273,-499.023,-43.457,-16.113,20.996,26709.735
1652668548.833,40.527,-185.059,-54.688,26.367,60.059,26709.738
1652668548.837,-7.324,259.277,-41.504,-21.973,-59.082,26709.742
1652668548.839,-101.562,-221.680,-51.758,-90.820,-14.648,26709.745
1652668548.843,-76.660,-331.543,-56.152,-70.312,-8.789,26709.749
1652668548.847,21.484,209.473,-65.430,4.395,-51.270,26709.752
1652668548.851,4.883,409.180,-75.195,-12.695,-76.660,26709.756
1652668548.855,-83.008,3.906,-60.547,-75.195,-49.316,26709.760
1652668548.859,-73.242,-256.836,-51.270,-50.293,73.242,26709.764
1652668548.863,3.906,-117.676,-57.617,9.277,109.375,26709.768
1652668548.866,3.418,32.715,-54.688,-13.184,33.691,26709.772
1652668548.870,-92.773,-398.926,-43.945,-80.078,44.434,26709.776
1652668548.874,-119.141,-996.094,-58.594,-79.102,208.984,26709.780
1652668548.878,-39.551,-226.074,-80.566,-34.180,59.082,26709.784
1652668548.882,14.160,481.934,-79.102,-5.371,-67.871,26709.788
1652668548.884,-58.594,-31.738,-58.105,-57.129,0.000,26709.789
1652668548.888,-112.305,-84.961,-61.035,-93.750,-83.008,26709.793
1652668548.892,-44.434,175.781,-60.059,-38.086,-164.551,26709.797
1652668548.896,37.109,35.645,-37.598,19.531,-86.914,26709.801
1652668548.900,-3.418,-51.758,-33.691,-13.672,-14.648,26709.805
1652668548.904,-72.754,-131.836,-51.270,-56.641,-62.500,26709.809
1652668548.908,-69.336,-183.105,-78.613,-53.223,-42.969,26709.813
1652668548.911,-20.020,-13.184,-77.148,-40.039,-36.133,26709.817
1652668548.915,-25.391,-520.508,-59.570,-41.992,140.625,26709.821
1652668548.919,-101.562,-626.953,-68.848,-79.102,122.070,26709.824
1652668548.923,-81.543,295.898,-52.246,-50.293,-204.102,26709.828
1652668548.927,13.672,180.176,-41.992,26.855,-136.230,26709.832
1652668548.929,21.973,63.965,-81.055,10.254,-3.906,26709.834
1652668548.933,-69.824,337.891,-97.168,-64.941,-96.191,26709.838
1652668548.937,-80.566,317.871,-54.688,-47.363,-205.566,26709.842
1652668548.941,-9.277,82.520,-39.062,7.324,-138.184,26709.846
1652668548.945,36.621,18.555,-63.965,24.414,-33.203,26709.850
1652668548.949,-20.020,13.672,-70.312,-19.531,-17.578,26709.854
1652668548.953,-99.609,-111.328,-68.848,-73.730,-72.754,26709.858
1652668548.956,-58.105,-430.664,-57.617,-30.273,17.578,26709.862
1652668548.960,22.949,-1000.000,-60.059,31.738,375.488,26709.866
1652668548.964,-11.719,-659.668,-54.688,-3.418,311.523,26709.870
1652668548.968,-74.707,141.113,-25.879,-45.898,-144.043,26709.873
1652668548.972,-57.617,86.914,-12.207,-27.832,-201.172,26709.877
1652668548.974,-20.508,228.516,-69.824,-14.160,-74.707,26709.879
1652668548.978,-36.133,521.484,-88.379,-41.992,-55.176,26709.883
1652668548.982,-88.867,275.879,-42.969,-75.195,-144.043,26709.887
1652668548.986,-96.680,-10.742,-49.316,-71.777,-162.598,26709.891
1652668548.990,-24.902,179.688,-62.012,-21.484,-83.984,26709.895
1652668548.994,37.598,143.555,-42.969,24.414,29.297,26709.899
1652668548.998,-35.156,-51.270,-41.504,-28.809,-47.852,26709.903
1652668549.001,-91.309,-594.238,-43.457,-56.641,54.199,26709.907
1652668549.005,-23.438,-627.930,-41.016,-6.836,132.812,26709.911
1652668549.009,16.113,194.824,-81.055,-4.395,-40.039,26709.915
1652668549.013,-62.012,159.668,-111.328,-70.312,-82.031,26709.918
1652668549.017,-102.051,-233.887,-82.031,-83.496,-51.758,26709.922
1652668549.019,-57.129,90.332,-55.176,-40.039,-102.539,26709.924
1652668549.023,1.465,385.742,-63.965,-10.742,-98.145,26709.928
1652668549.027,-20.996,147.461,-70.801,-36.621,-16.602,26709.932
1652668549.031,-93.262,17.090,-53.223,-75.684,-33.691,26709.936
1652668549.035,-93.262,206.543,-56.152,-67.871,-92.285,26709.940
1652668549.039,-17.090,78.125,-66.406,-7.324,-27.832,26709.944
1652668549.043,21.973,-347.168,-55.664,21.973,204.590,26709.948
1652668549.046,-56.641,-898.438,-51.270,-41.992,276.367,26709.952
1652668549.050,-98.633,-402.344,-67.383,-77.148,-29.785,26709.955
1652668549.054,-24.414,313.477,-75.684,-26.855,-151.367,26709.959
1652668549.058,31.250,-33.203,-62.012,12.695,46.875,26709.963
1652668549.062,-38.086,-286.133,-46.875,-33.203,19.531,26709.967
1652668549.065,-119.141,-51.270,-65.918,-96.191,-130.859,26709.981
1652668549.069,-67.871,165.527,-73.730,-61.523,-92.773,26709.985
1652668549.073,31.250,-15.625,-49.805,8.789,40.527,26709.989
1652668549.077,-28.320,33.691,-61.035,-39.062,48.828,26709.993
1652668549.081,-116.211,237.793,-81.055,-96.680,-94.238,26709.997
1652668549.085,-88.867,58.594,-79.590,-70.801,-103.516,26710.001
1652668549.089,-8.301,-581.055,-81.055,-14.160,177.246,26710.005
1652668549.092,6.836,-490.234,-57.617,-7.324,185.547,26710.009
1652668549.096,-73.730,289.062,-57.617,-63.965,-173.340,26710.013
1652668549.100,-94.727,49.805,-89.355,-70.801,-217.773,26710.016
1652668549.104,-11.719,-11.230,-88.867,-12.695,-103.027,26710.020
1652668549.108,17.578,328.613,-54.688,-0.977,-66.895,26710.024
1652668549.109,-57.617,372.070,-29.785,-48.340,-145.020,26710.028
1652668549.113,-96.680,30.273,-53.711,-58.594,-174.316,26710.032
1652668549.117,-43.457,-245.117,-73.730,-18.555,-84.961,26710.036
1652668549.121,12.207,18.066,-64.453,1.953,-57.617,26710.040
1652668549.125,-43.457,313.965,-50.781,-45.898,-93.750,26710.044
1652668549.129,-92.773,-226.074,-39.062,-63.477,12.207,26710.048
1652668549.133,-60.547,-931.641,-68.848,-29.785,268.066,26710.052
1652668549.136,-2.441,-500.977,-93.750,-7.324,151.855,26710.056
1652668549.140,-14.648,161.133,-60.059,-26.367,-96.191,26710.059
1652668549.144,-80.566,-308.594,-46.875,-61.035,-30.762,26710.063
1652668549.148,-79.590,-629.883,-71.289,-62.500,34.180,26710.067
1652668549.152,0.488,230.957,-69.336,-12.207,-62.012,26710.071
1652668549.169,-5.859,350.098,-66.406,-22.949,-63.965,26710.074
1652668549.173,-102.539,49.805,-68.359,-88.379,-103.027,26710.078
1652668549.177,-120.117,98.145,-70.312,-88.867,-135.254,26710.082
1652668549.181,-34.668,317.383,-71.777,-36.621,-146.484,26710.086
1652668549.185,25.879,208.008,-54.199,-0.977,-88.867,26710.090
1652668549.189,-43.457,-270.996,-52.734,-45.410,-20.020,26710.093
1652668549.193,-81.543,-312.012,-66.895,-66.406,-14.648,26710.097
1652668549.196,-26.855,-151.367,-71.777,-30.762,15.625,26710.101
1652668549.200,13.672,10.254,-84.473,-13.672,-5.859,26710.105
1652668549.204,-30.273,-586.426,-68.848,-37.109,167.969,26710.109
1652668549.208,-72.266,-649.902,-38.574,-56.152,119.629,26710.113
1652668549.212,-45.410,280.762,-51.270,-40.527,-148.926,26710.117
1652668549.214,26.855,189.941,-54.199,11.230,-65.430,26710.119
1652668549.218,12.695,48.340,-56.152,-5.859,-28.809,26710.123
1652668549.222,-76.660,214.355,-67.871,-57.129,-153.809,26710.127
1652668549.226,-74.219,233.887,-48.340,-40.039,-182.617,26710.131
1652668549.230,3.418,76.172,-42.969,14.648,-60.059,26710.135
1652668549.234,7.812,-152.344,-55.664,10.742,60.059,26710.139
1652668549.238,-93.750,-183.105,-76.172,-74.219,57.617,26710.143
1652668549.241,-105.469,-195.801,-67.383,-72.266,-79.102,26710.147
1652668549.245,-19.043,-431.641,-38.574,0.977,62.988,26710.151
1652668549.249,0.488,-1000.000,-48.828,6.348,402.344,26710.155
1652668549.253,-74.707,-659.668,-70.312,-61.523,179.688,26710.158
1652668549.257,-118.164,182.617,-84.961,-86.914,-137.207,26710.162
1652668549.259,-51.270,100.098,-66.406,-25.879,-153.809,26710.164
1652668549.263,35.156,209.961,-31.250,23.926,-59.570,26710.168
1652668549.267,-25.879,482.910,-32.715,-34.180,-40.039,26710.172
1652668549.271,-105.957,277.832,-29.297,-79.102,-133.789,26710.176
1652668549.275,-67.383,38.574,-41.016,-38.086,-86.914,26710.179
1652668549.279,-0.977,-25.879,-76.660,2.441,10.742,26710.183
1652668549.283,-16.602,-54.199,-66.895,-21.484,42.480,26710.187
1652668549.286,-93.750,-52.246,-54.199,-66.406,-56.641,26710.191
1652668549.290,-97.656,-634.277,-57.129,-48.340,-1.465,26710.195
1652668549.294,-13.184,-414.062,-50.293,-3.418,94.727,26710.199
1652668549.298,-2.441,465.820,-52.734,-21.973,-60.547,26710.203
1652668549.302,-95.215,86.426,-73.242,-80.078,-43.945,26710.207
1652668549.304,-89.844,-208.008,-60.059,-55.664,23.926,26710.209
1652668549.308,-3.906,178.711,-44.922,0.977,-96.680,26710.213
1652668549.312,25.879,449.219,-60.547,1.953,-107.910,26710.217
1652668549.316,-40.039,-2.930,-53.711,-41.992,0.977,26710.221
1652668549.320,-88.867,-433.105,-46.387,-59.570,-3.906,26710.225
1652668549.324,-51.758,-182.617,-71.289,-41.992,-60.547,26710.229
1652668549.328,28.809,-65.430,-63.477,2.441,-1.465,26710.233
1652668549.331,8.789,-369.141,-32.227,2.441,156.250,26710.237
1652668549.335,-93.262,-1000.000,-46.875,-61.523,306.152,26710.241
1652668549.339,-75.684,-494.629,-68.848,-52.734,35.156,26710.244
1652668549.343,30.762,304.199,-47.852,30.762,-131.836,26710.248
1652668549.347,27.344,141.602,-36.621,20.996,-72.754,26710.252
1652668549.349,-50.781,125.488,-62.988,-41.016,-110.840,26710.254
1652668549.353,-75.684,275.391,-86.914,-55.664,-186.035,26710.258
1652668549.357,-21.973,173.340,-71.777,-24.902,-130.371,26710.262
1652668549.361,2.441,-144.531,-52.246,-14.160,19.531,26710.266
1652668549.365,-83.496,-51.758,-59.570,-69.336,-71.289,26710.270
1652668549.369,-86.914,20.020,-30.762,-50.781,-125.000,26710.274
1652668549.373,-10.254,-52.246,-27.832,7.812,-12.695,26710.278
1652668549.376,37.598,-559.082,-35.156,26.367,185.059,26710.281
1652668549.380,-23.926,-458.008,-23.438,-20.996,123.535,26710.285
1652668549.384,-101.074,366.211,-53.711,-72.754,-164.551,26710.289
1652668549.388,-57.129,191.406,-75.684,-48.828,-139.648,26710.293
1652668549.392,16.113,92.773,-73.730,-6.836,-15.137,26710.297
1652668549.394,6.348,311.523,-57.129,-3.906,-55.664,26710.299
1652668549.398,-74.219,398.926,-75.684,-56.641,-161.133,26710.303
1652668549.402,-84.961,11.719,-73.242,-66.406,-63.965,26710.307
1652668549.406,2.441,-133.301,-31.250,-7.324,45.410,26710.311
1652668549.410,17.090,273.926,-9.277,-0.488,-14.648,26710.315
1652668549.414,-90.820,34.668,-24.902,-78.613,-84.961,26710.319
1652668549.418,-129.395,-467.285,-50.781,-96.680,58.105,26710.323
1652668549.421,-25.391,-863.770,-55.176,-2.930,310.059,26710.327
1652668549.425,41.504,-413.574,-70.312,34.668,180.176,26710.331
1652668549.429,-68.848,233.398,-92.285,-69.336,-89.355,26710.335
1652668549.433,-123.535,-285.645,-59.570,-102.051,11.719,26710.338
1652668549.437,-33.691,-551.758,-29.785,-21.484,119.141,26710.342
1652668549.439,15.137,331.543,-57.617,-5.859,-48.340,26710.358
1652668549.443,-55.176,415.527,-80.078,-75.195,-54.688,26710.362
1652668549.447,-108.398,51.758,-76.660,-94.727,-79.590,26710.366
1652668549.451,-61.523,97.168,-70.801,-47.852,-144.531,26710.370
1652668549.455,31.738,320.801,-71.777,8.789,-86.914,26710.374
1652668549.459,11.230,168.457,-76.172,-13.184,10.254,26710.378
1652668549.463,-88.379,-604.492,-58.594,-68.848,184.570,26710.382
1652668549.466,-90.332,-565.430,-34.180,-62.988,82.520,26710.385
1652668549.470,-3.418,176.270,-30.762,-15.137,-82.520,26710.389
1652668549.474,8.301,-22.461,-48.828,-14.160,20.996,26710.393
1652668549.478,-74.707,-193.848,-49.316,-59.082,10.742,26710.397
1652668549.482,-91.309,94.727,-41.504,-51.758,-93.750,26710.401
1652668549.484,-28.809,261.230,-60.547,-3.418,-119.141,26710.404
1652668549.488,-0.977,115.723,-70.312,2.930,-25.879,26710.408
1652668549.492,-75.195,57.617,-79.590,-63.965,-34.180,26710.412
1652668549.496,-115.723,260.254,-80.078,-91.797,-119.141,26710.416
1652668549.500,-41.016,333.008,-66.895,-26.855,-170.898,26710.419
1652668549.504,34.180,-120.605,-55.176,27.832,117.188,26710.423
1652668549.508,-36.133,-452.148,-71.289,-39.062,249.512,26710.427
1652668549.511,-124.023,-191.895,-70.801,-98.633,-22.949,26710.431
1652668549.515,-87.402,-33.691,-44.922,-53.711,-110.840,26710.435
1652668549.519,13.184,-324.707,-42.480,14.648,53.223,26710.439
1652668549.523,-15.625,-710.938,-60.547,-24.414,224.609,26710.443
1652668549.527,-109.863,-191.406,-70.312,-96.191,-46.387,26710.447
1652668549.544,-96.191,16.602,-66.895,-70.312,-187.012,26710.449
1652668549.548,0.488,-220.215,-56.641,15.625,-58.105,26710.453
1652668549.552,25.391,37.109,-62.012,25.879,-14.648,26710.457
1652668549.556,-64.941,400.879,-63.477,-56.641,-117.676,26710.461
1652668549.560,-106.445,208.984,-51.270,-79.590,-190.918,26710.465
1652668549.564,-32.715,-110.352,-44.922,-16.602,-2.441,26710.468
1652668549.568,16.602,-89.355,-50.293,11.719,139.648,26710.472
1652668549.571,-61.523,234.863,-60.547,-53.223,-69.336,26710.476
1652668549.575,-107.422,189.453,-61.035,-75.684,-201.660,26710.480
1652668549.579,-62.500,-480.957,-61.523,-28.320,17.578,26710.484
1652668549.583,-1.953,-170.898,-68.848,-2.441,62.988,26710.488
1652668549.587,-35.645,473.145,-75.195,-42.969,-100.586,26710.492
1652668549.589,-91.797,115.723,-56.641,-71.289,-103.027,26710.494
1652668549.593,-53.223,-25.879,-18.555,-30.273,-100.098,26710.498
1652668549.597,19.043,111.328,-30.762,20.020,-81.543,26710.502
1652668549.601,4.883,181.641,-55.664,0.000,-49.805,26710.506
1652668549.605,-90.820,-70.312,-55.664,-73.730,-31.738,26710.510
1652668549.609,-95.703,-490.723,-44.922,-63.477,41.504,26710.514
1652668549.613,-12.207,-177.734,-58.105,-3.418,61.523,26710.518
1652668549.616,3.418,11.230,-86.914,-21.484,6.348,26710.522
1652668549.620,-66.895,-327.637,-63.477,-71.777,57.129,26710.525
1652668549.624,-102.539,-994.629,-50.781,-75.195,245.605,26710.529
1652668549.628,-26.855,-360.840,-52.734,-22.949,109.863,26710.533
1652668549.632,34.668,424.805,-50.781,4.395,-40.527,26710.537
1652668549.634,-31.250,120.117,-62.988,-43.945,-65.430,26710.539
1652668549.638,-65.918,114.258,-35.645,-47.852,-162.109,26710.543
1652668549.642,-22.949,350.098,-34.668,-12.207,-146.973,26710.547
1652668549.646,34.668,352.051,-68.359,18.555,-64.941,26710.551
1652668549.650,-6.348,103.516,-62.012,-10.742,-4.883,26710.555
1652668549.654,-95.703,-142.578,-46.875,-69.336,-20.508,26710.559
1652668549.658,-65.918,-179.688,-44.922,-38.086,-41.992,26710.563
1652668549.661,22.949,-2.930,-55.664,22.949,34.668,26710.567
1652668549.665,15.625,-551.270,-60.547,15.137,231.934,26710.571
1652668549.669,-88.867,-738.770,-63.965,-61.035,166.992,26710.575
1652668549.673,-105.957,160.645,-72.754,-81.543,-155.273,26710.578
1652668549.677,-26.855,187.988,-64.941,-27.832,-141.113,26710.582
1652668549.679,36.621,95.703,-34.668,22.461,-52.734,26710.584
1652668549.683,-27.832,341.309,-36.621,-22.949,-129.883,26710.588
1652668549.687,-104.004,312.012,-64.941,-79.590,-207.031,26710.592
1652668549.691,-47.363,41.504,-51.758,-28.809,-121.094,26710.596
1652668549.695,25.391,90.820,-49.316,18.066,11.719,26710.600
1652668549.699,-19.531,127.441,-31.250,-26.367,55.664,26710.604
1652668549.703,-93.262,-66.895,-22.461,-74.219,14.648,26710.608
1652668549.706,-69.336,-378.906,-55.664,-48.340,128.906,26710.612
1652668549.710,21.484,-1000.000,-65.918,20.508,457.520,26710.616
1652668549.714,17.578,-505.371,-61.523,2.441,242.188,26710.620
1652668549.718,-66.406,312.988,-64.941,-62.500,-152.832,26710.623
1652668549.722,-88.379,-130.859,-81.055,-62.500,-111.816,26710.627
1652668549.724,-12.695,-126.953,-68.848,-10.254,-41.992,26710.629
1652668549.728,21.973,433.594,-33.203,3.906,-65.430,26710.633
1652668549.732,-65.918,301.758,-35.645,-62.012,-108.398,26710.637
1652668549.736,-97.656,39.062,-56.641,-77.148,-138.184,26710.641
1652668549.740,-16.602,136.719,-64.941,-11.719,-132.812,26710.644
1652668549.744,27.832,47.852,-73.730,12.695,-99.609,26710.648
1652668549.748,-49.805,-119.141,-58.105,-43.457,-67.383,26710.652
1652668549.751,-96.191,-642.578,-30.273,-63.477,70.312,26710.656
1652668549.755,-41.016,-514.160,-42.969,-28.320,61.523,26710.660
1652668549.759,26.855,392.578,-84.961,2.930,-90.820,26710.664
1652668549.763,5.371,230.957,-64.453,-4.883,-104.492,26710.668
1652668549.767,-70.312,-170.410,-19.531,-41.992,-102.051,26710.672
1652668549.799,-67.383,-20.020,-31.250,-39.551,-80.566,26710.705
1652668549.803,-17.578,372.559,-69.824,-22.949,-115.723,26710.709
1652668549.807,-33.691,84.961,-74.219,-40.527,-45.410,26710.713
1652668549.811,-80.566,-286.133,-41.504,-62.500,1.465,26710.717
1652668549.815,-62.012,62.500,-20.020,-37.109,-118.652,26710.720
1652668549.819,2.441,115.723,-26.855,0.000,-100.098,26710.724
1652668549.823,11.230,-288.574,-34.668,-2.930,118.164,26710.728
1652668549.826,-84.473,-924.316,-58.594,-60.547,352.539,26710.732
1652668549.830,-108.887,-355.957,-83.496,-76.660,88.379,26710.736
1652668549.834,-16.602,341.797,-57.617,-1.953,-153.320,26710.740
1652668549.838,29.297,85.449,-46.875,21.484,-38.574,26710.744
1652668549.842,-52.246,98.633,-52.734,-50.781,-75.195,26710.748
1652668549.814,-121.582,294.434,-45.410,-97.656,-217.285,26710.733
1652668549.818,-67.871,218.750,-47.363,-52.246,-232.422,26710.737
1652668549.822,30.762,-58.594,-54.199,22.461,-99.121,26710.741
1652668549.826,-1.953,-48.340,-62.012,-11.230,-49.805,26710.744
1652668549.830,-110.352,193.848,-71.777,-90.820,-173.828,26710.748
1652668549.834,-103.516,-47.852,-69.336,-71.777,-150.391,26710.752
1652668549.838,-1.465,-377.441,-44.434,3.906,-17.578,26710.756
1652668549.841,20.020,-88.379,-41.016,7.324,-66.895,26710.760
1652668549.845,-52.246,313.477,-41.016,-45.410,-166.992,26710.764
1652668549.849,-77.148,38.574,-41.992,-59.082,-188.477,26710.768
1652668549.853,-29.297,-238.281,-59.082,-31.250,-109.375,26710.772
1652668549.857,-15.625,101.562,-77.637,-29.785,-77.148,26710.776
1652668549.859,-93.750,300.293,-80.566,-87.891,-115.723,26710.778
1652668549.863,-102.051,4.395,-54.688,-73.242,-123.535,26710.782
1652668549.867,-45.898,-798.340,-50.781,-17.578,144.531,26710.786
1652668549.871,1.953,-361.816,-67.871,-3.418,123.047,26710.790
1652668549.875,-25.879,277.832,-69.824,-34.668,-110.352,26710.794
1652668549.879,-92.773,-386.719,-66.406,-68.359,44.922,26710.798
1652668549.883,-74.707,-593.750,-62.500,-56.152,45.410,26710.802
1652668549.886,21.484,-179.199,-50.293,4.883,-57.129,26710.806
1652668549.890,-5.371,-22.949,-55.664,-23.926,-19.043,26710.810
1652668549.894,-111.816,-434.082,-81.055,-101.562,39.551,26710.814
1652668549.898,-109.375,-1000.000,-90.332,-78.125,179.688,26710.817
1652668549.902,-28.809,-347.656,-84.961,-22.949,73.242,26710.821
1652668549.919,-11.230,177.734,-78.125,-21.973,-72.266,26710.824
1652668549.923,-100.586,12.207,-68.359,-85.938,-98.633,26710.828
1652668549.927,-105.957,167.480,-53.223,-84.473,-124.023,26710.832
1652668549.931,-19.043,358.398,-55.176,-22.461,-107.910,26710.836
1652668549.935,13.672,377.441,-72.266,-5.859,-10.742,26710.840
1652668549.939,-56.152,-58.105,-72.754,-50.781,61.035,26710.844
1652668549.943,-99.609,-269.531,-68.359,-80.566,-76.660,26710.847
1652668549.946,-65.918,87.891,-69.824,-60.547,-188.965,26710.851
1652668549.950,-4.395,288.086,-59.570,-12.695,-73.242,26710.855
1652668549.954,-43.945,-574.707,-51.758,-38.086,181.641,26710.859
1652668549.958,-120.117,-653.320,-67.383,-85.938,106.934,26710.863
1652668549.962,-54.199,309.082,-40.039,-26.367,-139.160,26710.867
1652668549.964,36.133,185.059,-45.410,35.156,-79.590,26710.869
1652668549.968,-18.066,-10.254,-111.816,-36.133,-57.129,26710.873
1652668549.972,-116.699,218.262,-85.938,-109.863,-173.828,26710.877
1652668549.976,-124.512,280.273,-38.086,-96.191,-200.684,26710.881
1652668549.980,-41.992,84.473,-47.363,-35.156,-73.242,26710.885
1652668549.984,-9.766,-209.961,-54.199,-21.484,0.000,26710.889
1652668549.988,-95.703,-233.398,-49.805,-81.055,-27.344,26710.893
1652668549.991,-108.887,-154.297,-45.898,-79.590,-79.102,26710.897
1652668549.995,-9.277,-400.879,-62.988,-2.930,10.742,26710.900
1652668549.999,43.945,-981.934,-77.148,30.762,269.531,26710.904
1652668550.003,-13.184,-438.477,-51.270,-24.414,79.590,26710.908
1652668550.007,-66.406,171.387,-34.668,-57.129,-253.418,26710.912
1652668550.009,-42.480,-127.930,-43.457,-30.273,-158.691,26710.914
1652668550.013,15.625,66.895,-54.199,0.000,-82.031,26710.918
1652668550.017,-25.391,377.441,-51.270,-41.504,-153.320,26710.922
1652668550.021,-102.539,204.590,-50.293,-81.543,-185.059,26710.925
1652668550.025,-77.148,-89.844,-75.195,-51.758,-132.324,26710.929
1652668550.029,1.465,-61.035,-99.609,-2.441,27.832,26710.933
1652668550.033,-6.836,-2.930,-77.637,-20.020,88.379,26710.937
1652668550.036,-65.918,2.930,-40.527,-52.734,-20.996,26710.941
1652668550.040,-70.312,-588.379,-39.551,-35.156,30.273,26710.945
1652668550.044,-7.324,-492.676,-60.059,0.977,52.734,26710.949
1652668550.048,-2.930,422.363,-89.844,-13.672,-84.961,26710.953
1652668550.052,-95.703,205.078,-85.938,-73.730,-81.543,26710.957
1652668550.054,-101.562,-11.230,-35.156,-63.965,-67.871,26710.959
1652668550.058,-19.043,264.160,-18.555,-8.789,-86.426,26710.963
1652668550.062,41.016,285.645,-27.344,24.414,-88.379,26710.967
1652668550.066,-35.156,-192.871,-38.574,-31.738,-7.812,26710.971
1652668550.070,-120.117,-421.875,-64.941,-92.285,15.625,26710.975
1652668550.074,-57.129,-99.121,-56.641,-41.016,-25.391,26710.978
1652668550.078,16.602,-49.805,-54.199,9.277,28.320,26710.982
1652668550.081,-9.277,-389.648,-64.453,-12.207,189.453,26710.986
1652668550.085,-75.195,-1000.000,-56.641,-46.387,309.570,26710.990
1652668550.089,-66.895,-469.727,-60.547,-44.434,67.383,26710.994
1652668550.093,9.277,395.508,-57.617,-2.930,-80.566,26710.998
1652668550.097,6.348,234.375,-43.945,-20.508,-5.859,26711.002
1652668550.099,-53.711,161.133,-22.461,-49.316,-80.078,26711.004
1652668550.103,-70.801,333.984,-33.203,-55.176,-166.992,26711.008
1652668550.107,-23.438,286.133,-58.105,-27.832,-126.953,26711.012
1652668550.111,8.301,155.273,-78.125,-7.324,-47.363,26711.016
1652668550.115,-65.430,169.434,-95.215,-66.406,-63.965,26711.019
1652668550.119,-114.258,-21.484,-83.984,-92.285,-89.355,26711.023
1652668550.123,-41.504,-9.277,-57.617,-31.250,-41.992,26711.027
1652668550.126,29.297,-553.711,-44.922,18.555,315.918,26711.031
1652668550.130,-62.012,-688.965,-50.781,-59.570,340.820,26711.035
1652668550.134,-125.977,242.676,-43.945,-96.680,-91.309,26711.039
1652668550.138,-60.547,133.301,-43.457,-32.715,-110.840,26711.043
1652668550.142,-5.859,-65.918,-54.688,-5.859,-34.180,26711.047
1652668550.145,-51.270,244.141,-59.082,-51.270,-107.910,26711.051
1652668550.149,-131.836,347.168,-62.500,-95.703,-159.180,26711.055
1652668550.153,-123.047,39.062,-61.035,-81.055,-80.566,26711.058
1652668550.157,-5.859,-11.230,-30.762,7.812,40.039,26711.062
1652668550.161,29.785,328.613,-21.484,29.297,54.688,26711.066
1652668550.165,-74.219,133.301,-64.941,-52.734,-28.320,26711.070
