timestamps,TP9,AF7,AF8,TP10,Right AUX,Secondary Timestamp
1652668355.521,3.418,214.844,-64.941,-6.836,-34.668,26516.427
1652668355.525,-108.398,-483.398,-49.805,-69.336,50.781,26516.431
1652668355.529,-94.727,-590.820,-71.777,-48.340,6.348,26516.435
1652668355.533,11.230,187.012,-62.988,17.578,-116.211,26516.439
1652668355.537,12.695,338.379,-51.270,7.812,-84.961,26516.443
1652668355.541,-84.473,-136.230,-54.199,-59.082,-26.855,26516.447
1652668355.545,-96.191,-351.562,-40.039,-52.246,3.906,26516.450
1652668355.548,1.465,-151.855,-33.691,15.137,9.277,26516.454
1652668355.552,45.410,204.590,-43.457,22.949,-60.059,26516.458
1652668355.556,-57.617,-373.047,-49.316,-40.527,33.203,26516.462
1652668355.560,-111.816,-763.184,-56.641,-52.246,126.465,26516.466
1652668355.564,-36.621,152.344,-78.125,-10.742,-50.781,26516.470
1652668355.564,-36.621,152.344,-78.125,-10.742,-50.781,26516.470
1652668355.566,50.781,301.270,-67.871,31.738,-46.875,26516.472
1652668355.570,-22.461,-55.176,-62.012,-22.461,9.277,26516.476
1652668355.574,-122.559,95.703,-71.289,-80.566,-62.012,26516.480
1652668355.578,-64.941,314.941,-50.293,-30.273,-126.953,26516.484
1652668355.582,41.992,141.113,-41.016,32.227,-25.879,26516.488
1652668355.586,6.348,-171.387,-58.594,-8.301,93.262,26516.492
1652668355.590,-93.750,-262.695,-54.199,-60.547,-26.855,26516.495
1652668355.593,-96.191,93.750,-44.434,-49.316,-123.535,26516.499
1652668355.597,-1.465,75.684,-51.270,2.441,0.977,26516.503
1652668355.601,9.766,-730.957,-69.336,2.441,247.559,26516.507
1652668355.605,-79.590,-466.309,-67.383,-60.059,134.766,26516.511
1652668355.609,-96.191,256.836,-61.035,-62.500,-159.180,26516.515
1652668355.612,-14.648,-229.004,-61.035,-1.465,77.148,26516.517
1652668355.616,40.527,-737.305,-42.969,19.043,322.754,26516.521
1652668355.620,-45.898,-83.496,-50.293,-49.805,15.137,26516.525
1652668355.624,-94.727,242.676,-63.477,-64.453,-159.668,26516.529
1652668355.628,-8.301,-28.809,-37.598,5.371,-108.398,26516.533
1652668355.632,66.406,-123.535,-27.832,41.016,27.832,26516.537
1652668355.636,-21.484,-175.781,-60.059,-38.086,46.387,26516.540
1652668355.639,-117.676,15.625,-85.449,-98.633,-115.234,26516.544
1652668355.643,-51.270,-456.055,-76.172,-31.250,14.160,26516.548
1652668355.647,64.453,-676.758,-46.875,47.852,175.781,26516.552
1652668355.651,28.320,208.008,-45.898,-9.766,-22.461,26516.556
1652668355.655,-81.055,175.781,-62.500,-79.102,-149.414,26516.560
1652668355.657,-71.289,-243.652,-56.152,-39.062,-90.332,26516.562
1652668355.661,35.645,-102.051,-29.785,32.715,25.391,26516.566
1652668355.665,55.664,303.711,-32.715,27.832,-10.254,26516.570
1652668355.669,-60.547,107.422,-56.152,-61.523,-84.961,26516.574
1652668355.673,-88.379,-357.910,-65.430,-73.242,-40.527,26516.578
1652668355.677,18.066,-332.031,-55.664,0.488,-30.273,26516.582
1652668355.681,59.570,-129.395,-56.152,13.184,-46.387,26516.586
1652668355.684,-32.227,-250.000,-57.129,-50.781,-37.598,26516.590
1652668355.688,-89.355,-745.605,-39.551,-62.012,68.359,26516.594
1652668355.692,-20.020,-272.949,-33.691,-9.766,12.207,26516.598
1652668355.696,59.082,268.555,-60.059,21.484,-36.133,26516.602
1652668355.700,-8.301,-51.270,-89.355,-26.855,29.297,26516.605
1652668355.701,-88.867,-253.418,-70.801,-62.500,-10.742,26516.607
1652668355.705,-52.734,-104.980,-50.293,-29.297,-21.973,26516.611
1652668355.709,35.156,310.059,-60.547,9.277,-41.992,26516.614
1652668355.713,18.066,-237.793,-53.223,-7.812,110.352,26516.618
1652668355.717,-95.215,-707.031,-49.316,-69.336,197.266,26516.622
1652668355.721,-100.586,-253.906,-57.129,-59.570,58.594,26516.626
1652668355.725,-5.371,-72.266,-67.871,7.324,6.836,26516.630
1652668355.728,20.996,-484.375,-62.988,8.789,106.445,26516.634
1652668355.732,-74.219,-773.438,-43.945,-50.781,149.414,26516.638
1652668355.736,-100.586,26.855,-39.062,-61.035,-133.301,26516.642
1652668355.740,-7.324,227.539,-47.363,2.441,-155.273,26516.646
1652668355.744,62.988,55.176,-38.574,41.504,-51.758,26516.650
1652668355.746,-30.273,176.758,-41.016,-34.668,-94.727,26516.652
1652668355.750,-109.375,248.047,-60.059,-86.426,-169.434,26516.656
1652668355.754,-48.340,52.246,-52.246,-37.109,-167.969,26516.660
1652668355.758,42.480,-27.832,-57.617,12.207,-70.312,26516.664
1652668355.762,1.465,189.941,-72.754,-26.855,-66.406,26516.668
1652668355.766,-102.051,-50.781,-63.477,-80.078,-67.383,26516.671
1652668355.770,-74.219,-327.637,-44.922,-36.133,12.207,26516.675
1652668355.773,34.180,-848.633,-34.668,42.969,288.574,26516.679
1652668355.777,38.574,-629.883,-26.855,20.020,234.375,26516.683
1652668355.781,-74.219,239.258,-40.039,-59.082,-124.023,26516.687
1652668355.785,-105.469,10.742,-66.895,-56.641,-115.234,26516.691
1652668355.789,-8.301,-42.969,-71.777,1.953,-31.738,26516.695
1652668355.791,32.227,29.297,-70.801,4.395,-19.531,26516.709
1652668355.795,-57.129,19.043,-57.129,-56.641,-112.305,26516.713
1652668355.799,-97.656,-355.469,-36.621,-54.199,-54.688,26516.717
1652668355.803,-20.020,-525.879,-39.551,6.836,82.520,26516.721
1652668355.807,56.152,117.188,-54.199,27.344,-19.043,26516.725
1652668355.811,-19.531,42.480,-65.918,-36.133,-34.180,26516.729
1652668355.815,-101.562,-597.656,-61.035,-59.570,173.340,26516.733
1652668355.818,-39.062,-712.402,-44.434,-0.488,166.016,26516.736
1652668355.822,57.617,146.973,-63.965,33.203,-71.777,26516.740
1652668355.826,23.438,209.473,-86.914,-0.977,-75.195,26516.744
1652668355.830,-70.801,-156.250,-58.105,-46.875,-40.527,26516.748
1652668355.834,-61.523,-18.555,-30.762,-31.738,-121.582,26516.752
1652668355.836,26.367,281.250,-41.992,12.207,-113.770,26516.756
1652668355.840,31.738,151.367,-48.828,3.906,-49.316,26516.760
1652668355.844,-73.242,-179.199,-58.594,-56.641,-41.016,26516.764
1652668355.848,-92.285,13.184,-70.801,-54.688,-74.707,26516.768
1652668355.852,19.043,207.520,-62.500,20.996,-87.402,26516.772
1652668355.856,67.383,-115.234,-46.875,41.504,77.637,26516.776
1652668355.860,-28.809,-700.684,-44.434,-12.207,199.707,26516.780
1652668355.863,-83.984,-394.043,-79.590,-41.504,-16.602,26516.783
1652668355.867,-30.762,223.145,-99.121,-20.020,-129.395,26516.787
1652668355.871,39.062,-23.438,-74.219,15.137,11.719,26516.791
1652668355.875,-18.066,-180.176,-54.199,-22.949,11.230,26516.795
1652668355.879,-106.445,84.473,-58.594,-67.383,-105.957,26516.799
1652668355.897,-62.988,-35.645,-57.617,-28.809,-108.887,26516.803
1652668355.901,29.297,-497.070,-54.688,33.203,207.031,26516.807
1652668355.905,20.020,-756.836,-54.688,18.555,327.148,26516.811
1652668355.909,-57.129,-96.680,-41.992,-30.762,-57.617,26516.815
1652668355.913,-60.059,111.816,-56.152,-30.762,-173.828,26516.819
1652668355.917,17.578,-290.039,-71.777,8.789,-3.418,26516.823
1652668355.921,26.367,-334.473,-59.570,0.977,65.430,26516.827
1652668355.924,-62.988,-145.508,-66.406,-55.176,-7.324,26516.830
1652668355.928,-99.121,97.168,-71.777,-68.848,-171.387,26516.834
1652668355.932,-20.996,-485.352,-61.523,-14.648,-54.688,26516.838
1652668355.936,33.691,-594.238,-64.941,13.672,39.551,26516.842
1652668355.940,-41.504,195.801,-57.129,-42.480,-142.090,26516.846
1652668355.941,-91.309,58.594,-41.992,-58.594,-208.984,26516.847
1652668355.945,-19.531,-119.141,-44.922,-4.395,-112.793,26516.850
1652668355.949,43.457,149.902,-59.082,21.484,-29.297,26516.854
1652668355.953,-14.648,115.723,-64.941,-25.391,-84.961,26516.858
1652668355.957,-92.773,-229.492,-65.918,-74.707,-18.555,26516.862
1652668355.961,-63.477,-494.141,-64.941,-41.016,105.469,26516.866
1652668355.965,42.969,-294.434,-65.918,22.461,115.234,26516.870
1652668355.968,37.109,158.203,-63.965,-9.766,14.160,26516.874
1652668355.972,-78.613,9.766,-56.152,-70.801,-68.359,26516.878
1652668355.976,-84.961,-891.113,-42.969,-41.992,174.316,26516.882
1652668355.980,26.855,-575.684,-36.621,28.809,173.828,26516.886
1652668355.984,49.316,348.633,-45.898,15.625,-37.109,26516.890
1652668355.987,-69.824,-118.652,-73.730,-58.105,-13.672,26516.892
1652668355.991,-110.840,-414.062,-81.543,-77.148,-76.660,26516.896
1652668355.995,-16.602,64.453,-62.500,-17.090,-187.988,26516.899
1652668355.999,52.734,240.723,-63.477,20.020,-198.730,26516.903
1652668356.003,-7.812,-290.527,-59.570,-24.414,-114.746,26516.907
1652668356.007,-88.379,-630.371,-71.777,-57.129,-40.039,26516.911
1652668356.011,-52.246,-332.031,-70.801,-23.438,-106.934,26516.915
1652668356.014,47.363,-58.594,-44.922,30.273,-49.805,26516.919
1652668356.018,15.625,-465.332,-32.715,2.441,123.535,26516.923
1652668356.022,-87.891,-869.629,-36.133,-62.012,175.781,26516.927
1652668356.026,-90.820,-37.109,-57.129,-70.801,-41.504,26516.931
1652668356.030,16.113,247.559,-67.383,-0.977,-100.586,26516.935
1652668356.032,21.484,66.406,-72.266,-7.812,-31.738,26516.937
1652668356.036,-79.102,191.406,-73.242,-78.125,-117.676,26516.941
1652668356.040,-92.773,263.672,-79.102,-73.730,-203.613,26516.944
1652668356.044,-16.113,114.746,-80.566,-26.855,-141.113,26516.948
1652668356.048,25.879,-42.480,-59.570,-11.230,-22.461,26516.952
1652668356.052,-65.430,-119.141,-64.453,-62.012,-0.977,26516.956
1652668356.056,-106.934,-173.828,-70.312,-76.660,-63.965,26516.960
1652668356.059,-21.484,-234.863,-55.664,-15.137,-30.762,26516.964
1652668356.063,32.715,-594.727,-65.430,19.531,178.711,26516.968
1652668356.067,-43.457,-344.238,-87.891,-46.387,25.879,26516.972
1652668356.071,-92.285,-54.199,-63.477,-70.312,-211.426,26516.976
1652668356.075,-26.855,-320.801,-40.039,-9.766,-45.410,26516.980
1652668356.077,65.430,-417.969,-56.152,37.109,152.832,26516.994
1652668356.081,14.160,-1.953,-58.594,-14.648,52.734,26516.998
1652668356.085,-99.609,302.246,-53.711,-83.008,-110.352,26517.002
1652668356.089,-82.520,-268.555,-49.316,-54.199,12.207,26517.006
1652668356.093,20.508,-436.523,-51.270,2.930,139.160,26517.010
1652668356.097,34.180,8.789,-75.684,-17.578,-1.953,26517.014
1652668356.101,-71.289,-90.820,-79.590,-70.801,-32.227,26517.018
1652668356.104,-90.820,-600.098,-71.777,-52.734,125.977,26517.022
1652668356.108,21.484,-663.574,-70.312,25.391,173.340,26517.025
1652668356.112,75.195,231.445,-59.082,34.180,-46.875,26517.029
1652668356.116,-36.133,222.656,-47.852,-49.805,-100.098,26517.033
1652668356.120,-104.492,-58.105,-54.688,-80.566,-57.129,26517.037
1652668356.122,-14.160,63.965,-63.477,-14.648,-49.805,26517.028
1652668356.126,66.895,116.211,-68.359,26.367,12.207,26517.032
1652668356.130,-1.953,33.691,-64.453,-29.785,-30.762,26517.036
1652668356.134,-91.309,-224.121,-53.711,-68.359,-50.293,26517.040
1652668356.138,-49.805,-91.797,-57.129,-32.715,-44.434,26517.044
1652668356.142,52.246,-20.996,-56.152,16.602,-22.461,26517.048
1652668356.146,14.648,-225.098,-56.641,-8.789,101.074,26517.051
1652668356.149,-83.984,-666.016,-86.914,-59.082,197.266,26517.055
1652668356.153,-67.383,-313.965,-87.402,-39.062,-18.066,26517.059
1652668356.157,30.762,302.734,-52.246,18.555,-134.277,26517.063
1652668356.161,37.598,-41.504,-43.457,3.418,-19.531,26517.067
1652668356.165,-82.520,-134.766,-63.965,-71.289,-4.395,26517.071
1652668356.166,-106.445,-32.715,-68.848,-69.336,-112.305,26517.084
1652668356.170,3.418,-104.492,-50.293,5.371,-113.281,26517.088
1652668356.174,49.316,-373.047,-49.316,21.973,76.172,26517.092
1652668356.178,-57.129,-571.289,-58.594,-61.035,79.590,26517.096
1652668356.182,-114.746,-222.656,-69.336,-88.867,-120.117,26517.100
1652668356.186,-37.598,-139.648,-73.730,-22.461,-81.055,26517.104
1652668356.190,46.875,-517.578,-66.406,27.832,151.855,26517.108
1652668356.193,-12.207,-902.344,-70.312,-19.043,290.039,26517.111
1652668356.197,-100.098,-143.066,-85.449,-70.801,8.789,26517.115
1652668356.201,-64.453,215.820,-82.031,-39.551,-171.387,26517.119
1652668356.205,41.504,49.316,-46.875,20.996,-89.355,26517.123
1652668356.209,35.645,228.027,-33.691,7.812,-51.758,26517.127
1652668356.212,-70.312,317.383,-47.363,-48.828,-146.484,26517.131
1652668356.216,-79.590,115.723,-42.969,-35.645,-126.465,26517.135
1652668356.220,29.297,-3.906,-52.246,31.738,-27.832,26517.139
1652668356.224,62.988,238.281,-69.824,36.621,-1.465,26517.143
1652668356.228,-37.598,270.996,-46.387,-33.691,-125.000,26517.147
1652668356.232,-94.238,-134.277,-62.988,-56.152,-57.129,26517.151
1652668356.236,-25.879,-667.480,-96.191,-3.906,266.602,26517.155
1652668356.239,39.551,-442.871,-83.984,17.578,166.016,26517.158
1652668356.243,-38.086,169.922,-62.988,-53.223,-124.512,26517.162
1652668356.247,-107.422,-80.566,-66.406,-79.102,-83.008,26517.166
1652668356.251,-47.363,-485.840,-72.754,-20.508,71.777,26517.170
1652668356.255,46.387,47.363,-58.594,23.926,-22.949,26517.174
1652668356.256,8.789,147.461,-43.457,-8.789,-61.523,26517.176
1652668356.260,-83.984,-485.352,-51.270,-52.246,43.457,26517.180
1652668356.264,-73.242,-564.941,-70.801,-32.715,67.383,26517.184
1652668356.268,22.949,175.293,-85.449,11.719,-35.156,26517.188
1652668356.272,20.996,276.855,-79.590,-9.766,-51.758,26517.192
1652668356.276,-83.496,-211.426,-52.734,-71.289,42.969,26517.195
1652668356.280,-100.586,-414.062,-49.805,-74.707,51.270,26517.199
1652668356.283,1.953,0.977,-58.594,-13.184,-34.180,26517.203
1652668356.287,50.293,314.453,-60.547,4.395,-86.426,26517.207
1652668356.291,-52.734,-442.871,-66.895,-50.293,68.848,26517.211
1652668356.295,-100.586,-746.094,-53.223,-58.594,89.844,26517.215
1652668356.299,-22.461,89.844,-44.434,-12.695,-138.184,26517.219
1652668356.316,41.016,212.402,-61.035,17.578,-82.520,26517.222
1652668356.320,-31.250,-201.660,-63.477,-36.133,-9.766,26517.226
1652668356.324,-112.793,-129.883,-48.340,-82.031,-68.848,26517.229
1652668356.328,-67.871,191.895,-61.523,-43.945,-168.457,26517.233
1652668356.332,28.320,62.012,-67.871,11.719,-77.148,26517.237
1652668356.336,2.930,-297.852,-54.688,-12.695,44.434,26517.241
1652668356.340,-84.473,-359.375,-51.758,-56.641,4.395,26517.245
1652668356.343,-72.754,-85.449,-54.199,-29.785,-67.383,26517.249
1652668356.347,16.602,-62.500,-61.523,27.832,-1.953,26517.253
1652668356.351,18.066,-556.641,-63.965,10.254,143.066,26517.257
1652668356.355,-74.707,-173.340,-61.523,-52.734,-37.598,26517.261
1652668356.359,-65.918,181.152,-59.570,-29.297,-162.598,26517.265
1652668356.362,31.250,-229.004,-46.387,33.203,-1.953,26517.268
1652668356.366,63.477,-369.141,-34.180,36.133,156.250,26517.272
1652668356.370,-38.574,-158.203,-61.035,-45.898,-0.977,26517.276
1652668356.374,-96.680,146.484,-74.707,-75.195,-201.660,26517.279
1652668356.378,-19.531,-335.449,-63.965,-12.207,-13.672,26517.283
1652668356.382,49.805,-806.152,-63.965,21.973,175.781,26517.287
1652668356.386,-15.137,-310.547,-50.781,-37.109,41.016,26517.291
1652668356.389,-88.379,73.730,-57.129,-74.219,-121.094,26517.295
1652668356.393,-41.992,-445.312,-72.266,-24.902,10.254,26517.299
1652668356.397,45.410,-679.688,-61.035,22.461,169.434,26517.303
1652668356.401,19.531,161.621,-59.570,-15.625,-62.988,26517.307
1652668356.405,-85.449,138.672,-71.289,-74.707,-180.176,26517.311
1652668356.408,-78.125,-81.055,-45.898,-55.664,-135.742,26517.314
1652668356.412,32.227,151.367,-34.668,7.812,-71.777,26517.317
1652668356.416,44.434,353.516,-60.547,0.488,-60.547,26517.321
1652668356.420,-62.012,78.613,-65.918,-66.406,-98.145,26517.325
1652668356.424,-83.008,-306.641,-55.176,-65.918,-38.086,26517.329
1652668356.428,16.113,-255.859,-58.594,14.648,32.715,26517.333
1652668356.432,67.383,-129.395,-48.828,47.852,13.672,26517.337
1652668356.435,-33.691,-231.445,-47.852,-29.297,-70.312,26517.341
1652668356.439,-107.422,-827.148,-47.852,-59.082,66.895,26517.345
1652668356.443,-41.504,-447.266,-43.457,-16.602,69.336,26517.349
1652668356.447,55.664,352.051,-44.922,25.879,-100.098,26517.353
1652668356.451,9.277,75.195,-48.828,-16.113,-88.867,26517.356
1652668356.451,-90.820,-291.992,-67.383,-77.637,-90.820,26517.357
1652668356.455,-66.406,-137.695,-62.500,-43.457,-127.441,26517.361
1652668356.459,32.227,232.422,-60.547,11.719,-81.543,26517.364
1652668356.463,14.648,60.059,-67.383,-16.602,51.758,26517.368
1652668356.467,-86.426,-78.613,-62.988,-69.336,14.648,26517.372
1652668356.471,-78.613,-131.836,-50.293,-48.340,-41.016,26517.376
1652668356.475,17.578,-185.059,-43.945,11.719,-15.625,26517.380
1652668356.478,32.715,-438.965,-62.988,13.672,132.324,26517.384
1652668356.482,-72.266,-1000.000,-69.824,-51.270,340.332,26517.388
1652668356.486,-106.934,-607.422,-50.781,-67.383,104.004,26517.392
1652668356.490,-22.461,161.621,-47.363,-16.602,-95.703,26517.396
1652668356.494,47.363,95.703,-68.359,17.578,-15.137,26517.400
1652668356.511,-23.926,170.898,-69.336,-36.621,-78.613,26517.417
1652668356.515,-99.121,327.148,-58.594,-74.707,-140.625,26517.421
1652668356.519,-51.758,152.344,-75.684,-35.156,-84.961,26517.425
1652668356.523,32.227,41.992,-86.914,9.766,15.625,26517.428
1652668356.527,-12.207,180.176,-66.895,-34.668,-24.414,26517.432
1652668356.531,-93.262,-11.230,-44.434,-75.684,-99.609,26517.436
1652668356.535,-69.336,-293.457,-49.316,-39.551,9.766,26517.440
1652668356.538,32.715,-695.312,-54.199,22.461,197.754,26517.444
1652668356.542,32.715,-274.902,-47.852,8.301,79.590,26517.448
1652668356.546,-67.383,311.035,-49.316,-46.875,-130.859,26517.452
1652668356.550,-74.219,-222.168,-51.758,-28.320,-0.977,26517.456
1652668356.554,0.977,-347.656,-66.895,8.301,121.094,26517.460
1652668356.541,27.344,6.348,-73.242,-2.930,72.754,26517.459
1652668356.545,-64.941,96.191,-61.523,-56.152,-70.312,26517.463
1652668356.549,-111.816,-331.543,-63.477,-62.012,-38.574,26517.467
1652668356.553,-21.973,-538.086,-63.965,3.906,77.148,26517.471
1652668356.557,61.035,235.352,-54.199,36.621,-32.715,26517.475
1652668356.561,-13.184,74.707,-43.945,-25.879,-23.926,26517.479
1652668356.565,-92.285,-455.566,-37.598,-59.082,2.930,26517.483
1652668356.568,-51.758,-235.352,-42.969,-20.508,-49.316,26517.486
1652668356.572,41.992,231.445,-44.434,19.531,-72.754,26517.490
1652668356.576,20.996,302.734,-31.738,-10.742,-131.836,26517.494
1652668356.580,-91.797,-477.051,-53.711,-71.777,19.531,26517.498
1652668356.584,-87.891,-698.730,-76.172,-60.059,116.211,26517.502
1652668356.587,13.672,144.531,-73.730,-7.812,-67.871,26517.504
1652668356.591,20.020,28.320,-72.266,-11.719,-2.441,26517.508
1652668356.595,-74.707,-311.523,-47.852,-53.711,34.180,26517.512
1652668356.599,-95.703,-40.527,-35.645,-56.641,-89.844,26517.516
1652668356.603,-6.836,233.398,-56.152,-15.137,-142.090,26517.520
1652668356.607,59.082,-71.777,-52.734,20.508,0.000,26517.524
1652668356.611,-33.691,-686.523,-46.875,-37.109,137.207,26517.528
1652668356.614,-105.957,-366.211,-62.988,-79.590,-45.898,26517.531
1652668356.618,-31.250,298.340,-72.754,-24.902,-175.781,26517.535
1652668356.622,61.523,61.035,-64.453,29.785,-9.277,26517.539
1652668356.626,-6.348,-154.785,-59.570,-20.508,-2.441,26517.543
1652668356.630,-97.656,146.973,-73.730,-70.801,-149.902,26517.547
1652668356.646,-41.992,94.727,-62.988,-20.508,-127.930,26517.552
1652668356.650,66.406,-439.453,-41.992,48.340,85.449,26517.556
1652668356.654,25.879,-496.582,-54.199,10.254,107.910,26517.560
1652668356.658,-91.309,29.785,-62.988,-72.754,-131.348,26517.563
1652668356.662,-75.195,6.348,-41.504,-53.223,-166.504,26517.567
1652668356.666,26.855,-533.691,-46.387,22.461,159.668,26517.571
1652668356.670,37.109,-828.613,-81.543,14.160,360.352,26517.575
1652668356.673,-69.824,-82.520,-86.426,-70.801,-6.348,26517.579
1652668356.677,-100.098,178.711,-62.012,-76.172,-195.312,26517.583
1652668356.681,1.953,-66.406,-43.457,2.930,-80.078,26517.587
1652668356.685,56.641,146.484,-57.617,22.949,-17.090,26517.591
1652668356.689,-28.320,334.473,-69.824,-42.480,-96.680,26517.595
1652668356.691,-78.613,123.047,-72.266,-55.664,-132.324,26517.597
1652668356.695,-38.086,-84.473,-74.219,-22.461,-59.082,26517.601
1652668356.699,32.715,133.789,-55.664,6.348,-1.465,26517.605
1652668356.703,-4.395,274.414,-53.223,-21.973,-85.938,26517.609
1652668356.707,-86.914,8.301,-60.059,-52.734,-121.094,26517.612
1652668356.711,-57.129,-349.609,-58.594,-20.020,-3.906,26517.616
1652668356.715,33.203,-303.223,-63.477,21.973,73.242,26517.620
1652668356.718,15.625,-141.602,-74.219,-7.812,23.438,26517.624
1652668356.722,-84.473,-249.512,-62.988,-58.105,-59.570,26517.628
1652668356.726,-89.844,-893.555,-50.293,-42.480,147.461,26517.632
1652668356.730,9.766,-593.750,-51.758,8.789,164.551,26517.636
1652668356.734,39.062,310.059,-46.387,3.418,-64.453,26517.640
1652668356.736,-65.430,-223.145,-50.293,-57.617,89.844,26517.642
1652668356.740,-113.770,-470.703,-62.988,-76.172,119.629,26517.646
1652668356.744,-27.832,202.148,-70.801,-22.461,-73.242,26517.650
1652668356.748,47.852,389.648,-85.449,15.625,-14.648,26517.653
1652668356.752,-28.320,-42.480,-77.148,-27.832,4.883,26517.657
1652668356.756,-100.586,-331.543,-56.641,-52.734,-19.531,26517.661
1652668356.760,-51.758,-212.402,-46.387,-11.230,16.113,26517.665
1652668356.763,33.691,-31.738,-65.430,31.738,3.418,26517.669
1652668356.767,10.742,-468.750,-63.965,14.648,71.289,26517.673
1652668356.771,-93.750,-720.703,-37.598,-51.758,99.121,26517.677
1652668356.775,-78.125,-74.707,-37.109,-45.898,-39.062,26517.681
1652668356.779,41.992,150.391,-39.551,33.691,-18.066,26517.685
1652668356.781,22.461,-83.496,-69.824,1.465,34.180,26517.687
1652668356.785,-94.727,-38.574,-87.402,-72.754,-68.848,26517.691
1652668356.789,-100.098,218.262,-66.406,-51.270,-193.359,26517.694
1652668356.793,-10.742,92.773,-73.730,6.348,-126.465,26517.698
1652668356.797,24.902,-35.156,-80.566,3.418,-38.574,26517.702
1652668356.801,-59.570,-125.488,-62.988,-49.316,-9.277,26517.706
1652668356.805,-100.098,-180.664,-53.223,-53.711,-43.945,26517.710
1652668356.808,-27.344,-250.977,-62.988,2.930,-42.480,26517.714
1652668356.812,32.715,-666.016,-68.848,31.738,174.316,26517.718
1652668356.816,-38.574,-249.023,-55.664,-30.762,92.285,26517.722
1652668356.820,-102.539,337.891,-58.594,-59.082,-129.395,26517.726
1652668356.824,-48.828,41.992,-67.871,-12.695,-33.203,26517.730
1652668356.827,26.367,-197.266,-63.477,17.578,77.637,26517.733
1652668356.831,-19.043,-179.688,-56.641,-30.273,4.395,26517.737
1652668356.835,-104.004,19.531,-58.105,-77.148,-128.906,26517.741
1652668356.839,-87.402,-279.297,-62.012,-41.992,-13.672,26517.745
1652668356.843,6.836,-676.758,-56.152,21.973,200.684,26517.749
1652668356.847,27.344,-205.078,-52.246,10.742,79.590,26517.753
1652668356.851,-58.594,-50.293,-48.340,-39.062,-100.098,26517.756
1652668356.854,-88.867,-588.867,-53.711,-37.109,-11.719,26517.760
1652668356.858,5.859,-668.457,-52.246,21.973,107.910,26517.764
1652668356.862,52.246,222.656,-42.480,22.461,-52.246,26517.768
1652668356.866,-62.988,221.680,-65.918,-62.012,-128.906,26517.772
1652668356.870,-125.488,-61.523,-86.914,-87.891,-116.699,26517.776
1652668356.871,-41.992,135.254,-73.242,-24.414,-88.867,26517.777
1652668356.875,43.457,351.074,-68.848,20.508,-54.688,26517.781
1652668356.879,-17.090,153.320,-66.406,-30.273,-91.797,26517.785
1652668356.883,-90.332,-115.234,-41.992,-60.547,-88.379,26517.788
1652668356.887,-43.945,-136.230,-41.504,-25.879,-45.410,26517.792
1652668356.891,44.922,-117.676,-54.688,20.020,-14.160,26517.796
1652668356.895,21.484,-166.016,-47.852,4.883,-5.859,26517.800
1652668356.898,-84.473,-831.055,-59.570,-49.316,143.555,26517.804
1652668356.902,-80.566,-693.848,-62.012,-38.086,135.254,26517.808
1652668356.906,17.090,267.578,-65.918,7.324,-91.309,26517.812
1652668356.910,30.273,154.297,-74.219,0.000,-65.430,26517.816
1652668356.914,-65.918,25.879,-64.941,-56.641,-100.586,26517.820
1652668356.916,-104.492,28.809,-58.105,-64.453,-100.098,26517.834
1652668356.920,-5.859,59.082,-60.547,8.789,-69.336,26517.838
1652668356.924,64.453,-186.035,-67.383,48.828,28.320,26517.842
1652668356.928,-29.785,-405.762,-64.453,-20.020,95.215,26517.846
1652668356.932,-80.566,125.488,-48.340,-45.898,-122.070,26517.850
1652668356.936,-10.742,95.703,-38.574,6.348,-92.773,26517.854
1652668356.940,65.918,-492.188,-55.176,47.363,219.727,26517.858
1652668356.943,6.836,-783.203,-63.477,1.953,235.840,26517.862
1652668356.947,-102.539,7.324,-79.590,-75.684,-80.566,26517.866
1652668356.951,-62.500,335.938,-68.848,-39.062,-146.484,26517.870
1652668356.955,43.945,-104.004,-48.828,34.180,11.230,26517.873
1652668356.959,11.719,-121.094,-67.871,-1.465,29.785,26517.877
1652668356.961,-88.867,323.242,-69.336,-66.406,-103.027,26517.880
1652668356.965,-77.148,237.305,-56.152,-43.457,-86.426,26517.884
1652668356.969,32.227,73.730,-41.992,25.879,10.254,26517.888
1652668356.973,62.012,295.898,-40.527,30.273,36.621,26517.892
1652668356.977,-45.898,313.965,-60.059,-47.363,-65.430,26517.896
1652668356.981,-95.703,-83.496,-71.289,-65.918,-40.039,26517.900
1652668356.985,-18.555,-651.855,-76.660,-8.301,204.102,26517.904
1652668356.988,50.781,-238.770,-73.730,16.113,124.512,26517.908
1652668356.992,-32.227,375.000,-59.082,-44.922,-118.652,26517.912
1652668356.996,-105.957,-65.918,-61.035,-69.824,-92.285,26517.915
1652668357.000,-37.598,-347.656,-65.430,-15.137,-13.184,26517.919
1652668357.004,47.852,137.695,-68.359,30.762,-34.180,26517.923
1652668357.022,-4.883,147.949,-66.895,-16.602,-31.250,26517.941
1652668357.026,-89.355,-453.125,-40.039,-55.176,45.410,26517.945
1652668357.030,-69.824,-764.160,-25.391,-26.367,125.000,26517.949
1652668357.034,41.016,-27.344,-39.062,26.855,4.883,26517.952
1652668357.038,39.062,381.836,-66.895,5.371,-94.238,26517.956
1652668357.042,-96.191,-287.109,-81.543,-83.984,6.348,26517.960
1652668357.046,-96.191,-505.859,-56.641,-69.336,21.973,26517.964
1652668357.049,17.090,98.633,-50.293,3.906,-48.828,26517.968
1652668357.053,21.484,346.680,-69.824,-15.137,-63.965,26517.972
1652668357.057,-93.262,-259.277,-64.941,-86.914,51.758,26517.976
1652668357.061,-123.047,-323.242,-56.152,-83.496,67.871,26517.980
1652668357.065,-35.645,333.496,-55.664,-23.926,-69.336,26517.984
1652668357.067,32.715,208.496,-53.223,14.160,-51.270,26517.972
1652668357.071,-46.387,-142.578,-59.570,-41.504,6.836,26517.976
1652668357.075,-125.000,44.434,-77.148,-91.309,-21.484,26517.980
1652668357.079,-74.219,312.012,-85.449,-47.852,-103.516,26517.984
1652668357.083,20.508,170.410,-75.684,3.418,17.578,26517.988
1652668357.087,-9.277,-315.918,-63.477,-24.902,146.484,26517.992
1652668357.091,-99.609,-367.676,-39.551,-70.312,-5.371,26517.996
1652668357.094,-77.637,64.941,-41.504,-53.223,-152.344,26518.000
1652668357.098,19.531,19.531,-68.848,3.906,-22.949,26518.004
1652668357.102,15.625,-253.418,-67.383,-6.348,210.938,26518.008
1652668357.106,-76.660,49.316,-49.316,-62.012,24.902,26518.011
1652668357.110,-83.496,232.910,-51.758,-49.316,-208.496,26518.015
1652668357.111,-10.742,-175.781,-65.430,-6.348,-46.875,26518.017
1652668357.115,11.230,-950.195,-68.848,-0.488,295.898,26518.021
1652668357.119,-63.965,-422.852,-52.734,-57.129,101.074,26518.025
1652668357.123,-110.840,232.910,-47.852,-81.055,-159.180,26518.028
1652668357.127,-48.340,-138.672,-64.941,-32.715,0.488,26518.032
1652668357.131,28.809,-281.250,-71.289,0.488,102.539,26518.036
1652668357.135,-22.461,-165.527,-62.988,-34.180,23.438,26518.040
1652668357.138,-84.473,116.699,-60.059,-59.570,-124.023,26518.044
1652668357.142,-50.781,-383.789,-57.617,-32.715,9.277,26518.048
1652668357.146,17.090,-765.137,-69.336,6.348,208.984,26518.052
1652668357.150,-20.996,131.836,-81.543,-38.086,-37.109,26518.056
1652668357.154,-105.469,201.660,-61.523,-84.473,-198.730,26518.060
1652668357.156,-77.637,-78.613,-42.969,-48.828,-185.059,26518.062
1652668357.160,23.438,113.770,-49.316,8.301,-115.723,26518.066
1652668357.164,20.508,342.773,-70.312,-5.371,-58.594,26518.070
1652668357.168,-88.867,134.766,-62.988,-71.777,-97.656,26518.074
1652668357.172,-101.562,-129.883,-47.852,-64.941,-130.859,26518.077
1652668357.176,-8.301,-120.117,-65.918,0.977,-64.453,26518.081
1652668357.180,34.180,-99.121,-74.219,10.254,25.391,26518.085
1652668357.183,-35.645,-164.551,-44.922,-32.715,61.523,26518.089
1652668357.187,-88.379,-848.145,-25.879,-36.133,214.355,26518.093
1652668357.191,-40.039,-641.113,-50.781,-11.230,154.785,26518.097
1652668357.195,40.039,306.152,-65.918,12.207,-82.031,26518.101
1652668357.199,-23.926,79.590,-64.453,-38.086,-95.703,26518.105
1652668357.201,-103.516,-302.734,-63.477,-74.219,-67.383,26518.107
1652668357.205,-56.641,-61.523,-64.453,-29.297,-79.590,26518.111
1652668357.209,32.227,384.277,-63.965,18.066,-87.891,26518.115
1652668357.213,8.301,-90.820,-59.082,-11.719,68.848,26518.118
1652668357.217,-83.496,-511.230,-51.270,-59.570,50.781,26518.122
1652668357.221,-74.707,-129.395,-46.875,-39.062,-106.445,26518.126
1652668357.225,19.043,-13.672,-59.082,19.531,-27.344,26518.130
1652668357.228,35.645,-446.777,-68.359,20.020,148.926,26518.134
1652668357.232,-72.754,-636.719,-65.430,-51.758,155.762,26518.138
1652668357.236,-104.980,93.750,-47.363,-69.824,-104.004,26518.142
1652668357.240,-11.719,77.637,-43.457,-15.137,-96.680,26518.146
1652668357.244,49.805,-178.711,-60.547,15.625,44.434,26518.150
1652668357.247,-34.180,64.453,-67.871,-38.086,8.301,26518.153
1652668357.251,-94.727,362.793,-80.566,-73.242,-132.324,26518.157
1652668357.255,-24.902,128.418,-79.590,-24.414,-109.863,26518.161
1652668357.259,63.477,3.418,-66.895,31.250,-22.949,26518.165
1652668357.263,-0.977,190.918,-60.059,-17.090,-79.590,26518.169
1652668357.267,-88.867,-6.836,-52.246,-60.059,-172.363,26518.173
1652668357.271,-62.012,-258.301,-60.059,-26.367,-85.449,26518.177
1652668357.274,27.832,-661.621,-65.430,23.926,209.473,26518.180
1652668357.278,13.672,-250.000,-72.266,-6.348,145.020,26518.184
1652668357.282,-81.055,349.121,-59.082,-66.406,-128.418,26518.188
1652668357.286,-80.566,42.969,-42.969,-47.363,-94.238,26518.192
1652668357.290,9.277,34.668,-55.664,5.371,30.762,26518.196
1652668357.292,41.504,96.680,-74.707,-0.488,85.938,26518.198
1652668357.296,-65.430,-41.016,-77.148,-68.359,15.137,26518.202
1652668357.300,-114.746,-442.871,-58.594,-70.312,76.172,26518.206
1652668357.304,-35.156,-536.621,-63.477,-19.043,136.719,26518.210
1652668357.308,43.457,183.105,-68.359,12.695,-2.441,26518.214
1652668357.312,-23.438,119.629,-59.570,-26.367,-90.332,26518.218
1652668357.316,-113.281,-560.547,-70.801,-69.824,103.027,26518.222
1652668357.319,-62.988,-939.941,-66.406,-28.809,286.621,26518.225
1652668357.323,38.086,-81.055,-54.199,20.508,64.453,26518.229
1652668357.327,-11.719,371.582,-64.453,-27.344,-78.613,26518.233
1652668357.331,-111.328,6.348,-82.031,-88.867,-116.699,26518.237
1652668357.335,-84.961,105.469,-83.984,-64.941,-125.977,26518.241
1652668357.336,12.207,408.203,-59.570,-1.465,-55.664,26518.255
1652668357.340,4.395,262.207,-53.223,-17.578,-39.062,26518.259
1652668357.344,-95.703,-3.906,-67.871,-81.543,-63.477,26518.263
1652668357.348,-77.148,61.523,-52.734,-47.852,-135.742,26518.267
1652668357.352,32.715,-56.152,-52.734,28.809,-107.422,26518.271
1652668357.356,55.664,-176.270,-83.984,32.227,-5.859,26518.275
1652668357.360,-57.617,-762.695,-86.914,-32.227,147.949,26518.279
1652668357.363,-116.211,-723.145,-83.008,-66.406,100.586,26518.283
1652668357.367,-21.484,150.879,-73.242,-10.742,-129.883,26518.286
1652668357.371,67.871,116.211,-43.457,37.598,-45.410,26518.290
1652668357.375,-6.836,-85.449,-46.387,-24.902,-39.551,26518.294
1652668357.379,-99.121,35.156,-73.730,-68.848,-162.109,26518.298
1652668357.396,-45.898,47.363,-65.918,-21.484,-178.223,26518.302
1652668357.400,63.965,-413.086,-51.758,47.852,74.219,26518.306
1652668357.404,40.039,-503.906,-41.016,21.484,155.273,26518.310
1652668357.408,-78.613,115.723,-47.363,-57.129,-96.680,26518.314
1652668357.412,-87.891,211.426,-83.496,-54.199,-191.895,26518.317
1652668357.416,15.625,-347.656,-90.820,13.184,42.480,26518.321
1652668357.420,28.320,-522.949,-73.242,11.230,110.352,26518.325
1652668357.423,-64.941,-203.125,-50.781,-53.223,-35.645,26518.329
1652668357.427,-86.914,106.934,-42.969,-50.293,-71.289,26518.333
1652668357.431,-10.254,-423.828,-61.035,10.742,49.805,26518.337
1652668357.435,41.016,-667.969,-59.570,29.297,205.566,26518.341
1652668357.439,-31.250,185.059,-62.012,-38.086,-29.297,26518.345
1652668357.441,-83.008,137.207,-84.473,-53.223,-144.043,26518.347
1652668357.445,-29.785,-60.547,-73.242,-1.953,-89.355,26518.351
1652668357.449,50.781,181.152,-48.828,33.691,-28.320,26518.355
1652668357.453,2.930,314.453,-41.992,-1.465,-71.777,26518.359
1652668357.457,-101.562,40.527,-56.152,-64.453,-104.980,26518.363
1652668357.461,-83.008,-301.270,-85.938,-57.129,-25.879,26518.367
1652668357.465,17.578,-280.273,-96.191,7.812,65.918,26518.370
1652668357.468,9.277,90.332,-85.449,-2.930,20.508,26518.374
1652668357.472,-87.402,22.461,-86.426,-56.641,-47.363,26518.378
1652668357.476,-83.984,-729.492,-95.215,-38.086,97.656,26518.382
1652668357.480,20.508,-537.109,-100.586,16.113,82.031,26518.386
1652668357.484,37.109,170.410,-86.426,7.324,-122.559,26518.390
1652668357.486,-61.035,-235.352,-66.895,-42.480,-1.465,26518.404
1652668357.490,-86.426,-827.148,-64.453,-41.504,206.055,26518.408
1652668357.494,-10.742,-181.641,-81.543,-9.277,-13.184,26518.412
1652668357.498,39.062,313.477,-93.262,7.812,-91.797,26518.416
1652668357.502,-38.086,13.184,-92.285,-43.457,-36.621,26518.420
1652668357.506,-110.840,-301.270,-104.980,-81.543,-28.320,26518.424
1652668357.510,-46.875,-213.867,-100.586,-33.203,19.531,26518.428
1652668357.513,49.316,155.273,-85.449,19.531,-26.367,26518.432
1652668357.517,-8.301,-369.141,-84.473,-21.484,43.945,26518.435
1652668357.521,-94.727,-722.168,-85.938,-61.035,91.797,26518.439
1652668357.525,-57.617,105.957,-91.797,-25.879,-131.348,26518.443
1652668357.529,37.598,247.070,-95.703,18.555,-100.098,26518.447
1652668357.532,32.715,-1.953,-83.008,-1.465,-48.340,26518.438
1652668357.536,-63.477,-120.605,-77.637,-47.363,-44.922,26518.442
1652668357.540,-69.336,86.914,-81.543,-38.086,-94.727,26518.446
1652668357.544,20.996,157.715,-74.707,12.207,-99.121,26518.450
1652668357.548,38.086,-197.754,-82.031,5.859,7.812,26518.454
1652668357.552,-59.570,-305.664,-97.656,-60.547,-3.418,26518.458
1652668357.556,-92.285,-170.410,-91.797,-63.477,-39.551,26518.462
1652668357.559,-9.277,-177.734,-94.238,-4.395,-6.348,26518.465
1652668357.563,58.105,-537.109,-85.449,32.715,191.895,26518.469
1652668357.567,-14.160,-185.547,-57.617,-18.555,73.730,26518.473
1652668357.571,-87.891,296.387,-46.875,-54.688,-160.156,26518.477
1652668357.575,-29.785,-48.340,-45.898,-9.766,-81.055,26518.481
1652668357.576,57.129,-299.805,-54.199,30.762,28.809,26518.481
1652668357.580,9.277,-15.625,-64.941,-11.230,-29.297,26518.485
1652668357.584,-82.031,282.227,-60.059,-55.176,-185.059,26518.489
1652668357.588,-69.336,-303.223,-74.219,-29.297,-74.219,26518.493
1652668357.592,22.461,-671.875,-101.074,18.066,157.227,26518.497
1652668357.596,19.531,-168.457,-91.309,-9.277,59.570,26518.501
1652668357.600,-81.055,-81.543,-58.105,-67.383,-24.414,26518.505
1652668357.603,-92.285,-551.270,-48.828,-52.734,80.078,26518.509
1652668357.607,0.488,-934.082,-56.641,5.371,178.223,26518.513
1652668357.611,36.133,-80.566,-68.848,-0.977,18.066,26518.517
1652668357.615,-66.895,301.270,-62.500,-70.801,-108.887,26518.520
1652668357.619,-116.211,0.977,-62.012,-87.891,-114.746,26518.524
1652668357.623,-27.344,147.949,-87.402,-27.832,-109.863,26518.528
1652668357.627,58.105,346.191,-82.031,20.996,-83.984,26518.532
1652668357.631,-12.207,147.461,-58.105,-33.203,-88.867,26518.536
1652668357.635,-90.332,-83.008,-52.734,-72.754,-137.207,26518.540
1652668357.639,-57.617,72.754,-63.477,-44.434,-117.188,26518.544
1652668357.643,28.320,1.953,-56.641,1.953,2.441,26518.548
1652668357.647,3.418,-188.477,-50.781,-32.227,60.547,26518.552
1652668357.650,-97.168,-810.547,-63.477,-84.473,226.074,26518.556
1652668357.654,-75.684,-690.430,-61.035,-47.852,186.035,26518.560
1652668357.658,38.574,238.770,-55.664,16.602,-93.262,26518.563
1652668357.662,39.062,130.371,-61.523,10.742,-46.875,26518.567
1652668357.666,-66.895,-38.086,-53.223,-46.387,-64.453,26518.571
1652668357.666,-92.285,-31.738,-41.016,-50.781,-96.191,26518.584
1652668357.670,-18.066,15.137,-52.246,-2.441,-66.895,26518.588
1652668357.674,34.668,-106.445,-57.617,23.438,0.977,26518.592
1652668357.678,-40.039,-144.531,-57.617,-27.832,12.695,26518.596
1652668357.682,-100.586,110.352,-58.105,-57.129,-115.723,26518.600
1652668357.686,-48.340,-0.488,-57.129,-23.926,-40.039,26518.604
1652668357.690,47.363,-454.590,-37.598,31.738,191.895,26518.608
1652668357.693,-10.742,-934.082,-33.203,-7.324,285.645,26518.612
1652668357.697,-122.559,-198.242,-52.246,-77.148,-15.625,26518.616
1652668357.701,-81.543,210.449,-63.477,-39.551,-173.340,26518.620
1652668357.705,36.621,-159.668,-66.406,32.715,-6.836,26518.623
1652668357.709,18.555,22.949,-48.340,12.207,21.973,26518.627
1652668357.711,-83.008,334.961,-34.180,-49.316,-98.633,26518.631
1652668357.715,-74.707,118.652,-49.805,-36.133,-187.500,26518.635
1652668357.719,23.438,-247.559,-69.336,24.902,-52.734,26518.639
1652668357.723,37.109,-0.488,-63.965,16.113,21.484,26518.643
1652668357.727,-75.195,260.254,-58.594,-55.176,-135.742,26518.647
1652668357.731,-102.051,-125.000,-60.059,-52.246,-59.570,26518.651
1652668357.735,-12.207,-646.484,-53.711,9.766,245.605,26518.655
1652668357.738,55.664,-262.695,-52.246,36.133,160.156,26518.659
1652668357.742,-11.719,305.664,-65.430,-20.508,-116.211,26518.663
1652668357.746,-79.590,-75.195,-52.734,-45.410,-125.000,26518.666
1652668357.750,-21.973,-238.770,-34.668,-1.953,-85.449,26518.670
1652668357.754,67.383,175.293,-49.316,30.762,-80.566,26518.674
1652668357.758,13.672,3.906,-60.547,-9.766,-101.562,26518.676
1652668357.762,-86.426,-574.219,-53.711,-56.641,41.016,26518.680
1652668357.766,-59.082,-814.453,-47.363,-32.715,206.543,26518.684
1652668357.770,45.410,-104.980,-52.734,18.066,-2.930,26518.688
1652668357.774,28.809,311.523,-61.035,-7.812,-102.539,26518.692
1652668357.778,-73.730,-183.594,-70.801,-69.824,8.789,26518.696
1652668357.782,-61.035,-469.727,-70.801,-38.086,-7.812,26518.700
1652668357.785,43.945,-117.676,-53.223,35.156,-96.191,26518.704
1652668357.789,61.523,287.109,-36.133,20.996,-99.121,26518.707
1652668357.793,-48.828,-334.473,-38.574,-53.711,45.410,26518.711
1652668357.797,-87.402,-703.125,-39.062,-58.105,81.543,26518.715
1652668357.801,1.465,68.359,-27.832,0.000,-27.344,26518.719
1652668357.816,57.129,252.441,-39.551,19.531,-36.133,26518.721
1652668357.820,-34.180,35.156,-57.617,-51.270,-61.035,26518.725
1652668357.824,-99.121,153.320,-50.293,-75.195,-80.078,26518.729
1652668357.828,-28.320,249.023,-50.293,-13.672,-124.023,26518.733
1652668357.832,64.453,32.227,-86.426,30.273,-71.777,26518.737
1652668357.836,6.348,-447.754,-90.332,-10.254,170.410,26518.741
1652668357.840,-88.379,-459.473,-49.805,-64.453,78.125,26518.745
1652668357.843,-44.434,104.492,-14.648,-27.832,-161.621,26518.749
1652668357.847,44.434,61.035,-23.926,32.227,-54.688,26518.752
1652668357.851,26.367,-517.090,-45.410,4.883,113.281,26518.756
1652668357.855,-75.684,-131.348,-53.711,-64.453,-19.043,26518.760
1652668357.859,-91.309,320.312,-67.871,-59.082,-178.223,26518.764
1652668357.861,13.184,-68.359,-67.383,14.648,15.137,26518.767
1652668357.865,48.340,-251.953,-57.129,28.320,115.234,26518.771
1652668357.869,-68.848,111.328,-61.035,-59.082,-103.027,26518.775
1652668357.873,-119.141,264.160,-72.266,-79.102,-204.102,26518.779
1652668357.877,-30.273,-188.965,-95.703,-3.418,3.418,26518.783
1652668357.881,52.246,-453.125,-83.496,30.273,203.125,26518.786
1652668357.885,-23.926,-174.805,-47.363,-37.598,83.496,26518.790
1652668357.888,-96.191,-103.516,-38.086,-69.824,-54.199,26518.794
1652668357.892,-29.785,-523.438,-39.551,-9.277,53.711,26518.798
1652668357.896,42.969,-870.117,-52.246,25.391,259.766,26518.802
1652668357.900,-13.672,-5.371,-55.176,-36.621,61.035,26518.806
1652668357.904,-101.074,210.449,-47.363,-75.195,-164.551,26518.810
1652668357.907,-85.938,-95.703,-63.477,-51.758,-156.738,26518.812
1652668357.911,0.000,195.312,-72.266,-6.836,-55.176,26518.816
1652668357.915,18.555,408.203,-56.152,-2.441,-37.109,26518.820
1652668357.919,-70.801,178.711,-56.641,-48.828,-78.613,26518.824
1652668357.923,-88.379,-81.055,-70.801,-55.176,-99.121,26518.827
1652668357.927,12.207,-38.086,-83.984,2.441,8.301,26518.831
1652668357.931,62.988,-45.898,-59.082,28.320,113.281,26518.835
1652668357.934,-40.527,-203.613,-34.180,-38.574,26.855,26518.839
1652668357.938,-104.004,-670.898,-49.805,-62.500,89.355,26518.843
1652668357.942,-26.855,-329.102,-62.012,-13.672,41.992,26518.847
1652668357.946,60.547,149.902,-44.434,22.461,-45.410,26518.851
1652668357.950,6.348,-191.895,-34.668,-18.555,68.848,26518.855
1652668357.951,-89.355,-482.910,-55.176,-65.918,98.633,26518.857
1652668357.955,-52.246,-133.789,-63.965,-23.926,-14.648,26518.861
1652668357.959,62.988,347.168,-81.543,39.062,-90.820,26518.865
1652668357.963,28.809,-126.953,-80.566,7.324,75.684,26518.868
1652668357.967,-88.867,-477.539,-53.711,-51.758,98.633,26518.872
1652668357.971,-78.613,-158.691,-49.316,-35.156,-41.016,26518.876
1652668357.975,21.484,-3.906,-53.223,18.555,50.293,26518.880
1652668357.978,28.809,-395.508,-56.152,15.625,208.496,26518.884
1652668357.982,-60.059,-658.203,-54.688,-32.227,198.730,26518.888
1652668357.986,-81.543,172.852,-66.406,-48.340,-52.734,26518.892
1652668357.990,6.836,344.727,-62.500,4.395,-53.711,26518.896
1652668357.994,66.406,152.832,-54.199,34.668,18.066,26518.900
1652668357.998,-32.227,195.801,-67.383,-30.273,-65.430,26518.903
1652668358.002,-94.727,60.547,-56.152,-62.012,-114.258,26518.907
1652668358.006,-22.461,-156.250,-45.898,-12.695,-102.051,26518.911
1652668358.010,52.246,-178.223,-63.965,14.648,-11.230,26518.915
1652668358.014,-12.207,36.621,-68.359,-34.668,-14.160,26518.919
1652668358.018,-103.516,-26.367,-65.918,-74.707,-85.449,26518.923
1652668358.022,-48.340,-257.324,-63.965,-28.320,-2.930,26518.927
1652668358.025,74.219,-670.410,-55.176,59.082,248.047,26518.930
1652668358.029,36.133,-294.922,-65.918,13.672,144.531,26518.934
1652668358.033,-91.309,370.605,-64.941,-80.078,-123.535,26518.938
1652668358.037,-92.285,-8.789,-71.777,-66.406,-120.605,26518.942
1652668358.041,5.859,-45.898,-86.426,1.465,-34.180,26518.946
1652668358.041,31.738,31.250,-63.965,1.465,6.836,26518.959
1652668358.045,-65.918,62.012,-52.734,-68.848,-63.965,26518.963
1652668358.049,-103.027,-227.539,-56.641,-70.312,-26.367,26518.967
1652668358.053,-18.066,-527.832,-61.035,-4.883,59.082,26518.971
1652668358.057,56.641,-74.219,-58.594,25.391,-54.688,26518.974
1652668358.061,-21.484,-92.285,-44.434,-33.203,-96.680,26518.978
1652668358.065,-96.680,-565.918,-49.805,-51.270,23.438,26518.982
1652668358.068,-39.062,-943.359,-57.617,-1.953,196.777,26518.986
1652668358.072,41.992,-148.438,-54.688,13.184,62.012,26518.990
1652668358.076,-11.230,248.047,-50.781,-36.621,-125.000,26518.994
1652668358.080,-95.703,-43.457,-65.918,-74.707,-159.180,26518.998
1652668358.084,-64.453,40.039,-57.129,-35.156,-164.062,26519.002
1652668358.086,21.973,304.199,-44.922,11.230,-100.586,26519.006
1652668358.090,8.301,155.273,-53.711,-20.020,-67.871,26519.010
1652668358.094,-83.496,-155.273,-62.988,-64.941,-122.559,26519.014
1652668358.098,-66.406,32.715,-49.316,-31.738,-131.836,26519.018
1652668358.102,36.133,182.129,-40.039,32.227,-118.164,26519.022
1652668358.106,58.594,-71.777,-56.152,29.785,41.504,26519.026
1652668358.110,-58.105,-633.789,-73.730,-45.410,150.879,26519.030
1652668358.113,-99.609,-571.289,-73.730,-53.711,25.391,26519.034
1652668358.117,-1.953,82.031,-44.434,19.043,-81.543,26519.037
1652668358.121,55.176,13.184,-48.340,38.574,12.207,26519.041
1652668358.125,-24.902,-449.219,-53.711,-25.879,110.840,26519.045
1652668358.129,-97.656,-80.078,-41.016,-62.988,-65.918,26519.049
1652668358.131,-41.992,50.781,-46.387,-22.949,-82.031,26519.051
1652668358.135,66.895,-445.312,-51.270,45.410,105.957,26519.055
1652668358.139,27.832,-551.758,-47.852,7.812,98.633,26519.059
1652668358.143,-80.566,39.551,-58.105,-63.965,-142.090,26519.063
1652668358.147,-59.570,132.812,-58.105,-31.250,-167.480,26519.067
1652668358.151,47.852,-191.895,-35.645,41.992,66.895,26519.071
1652668358.155,37.109,-285.645,-53.711,16.113,139.160,26519.075
1652668358.158,-83.008,9.766,-88.867,-69.336,14.648,26519.079
1652668358.162,-97.656,276.855,-84.473,-74.219,-127.930,26519.083
1652668358.166,0.488,-413.086,-44.922,0.977,25.879,26519.086
1652668358.170,66.406,-734.375,-25.391,34.668,214.355,26519.090
1652668358.174,-17.578,79.590,-44.434,-35.645,-22.461,26519.094
1652668358.191,-88.867,182.617,-70.312,-72.754,-181.641,26519.097
1652668358.195,-7.812,-190.430,-84.473,-8.301,-64.941,26519.101
1652668358.199,70.801,-7.812,-79.102,30.762,2.930,26519.105
1652668358.203,-17.090,343.262,-57.617,-41.504,-72.754,26519.109
1652668358.207,-91.797,159.180,-31.250,-67.383,-92.285,26519.112
1652668358.211,-38.574,-262.207,-39.551,-16.113,38.574,26519.116
1652668358.215,51.758,-200.195,-48.828,28.809,83.008,26519.120
1652668358.218,17.090,182.129,-51.270,-8.301,-68.848,26519.124
1652668358.222,-99.121,2.441,-84.473,-76.660,-127.441,26519.128
1652668358.226,-88.379,-554.688,-95.215,-45.898,35.645,26519.132
1652668358.230,33.691,-116.699,-76.172,31.738,44.434,26519.136
1652668358.234,39.062,340.332,-55.664,10.742,-57.129,26519.140
1652668358.238,-86.426,-187.012,-50.293,-65.430,17.578,26519.143
1652668358.242,-111.328,-553.711,-62.012,-63.965,153.320,26519.147
1652668358.246,-7.812,-0.977,-68.359,-6.348,71.289,26519.151
1652668358.250,47.363,480.469,-53.223,16.113,-26.367,26519.155
1652668358.254,-38.086,-124.512,-42.480,-33.691,23.926,26519.159
1652668358.258,-96.191,-710.938,-62.988,-59.570,12.695,26519.163
1652668358.262,-21.973,-261.719,-73.730,-13.672,-60.547,26519.167
1652668358.265,64.941,202.637,-76.172,30.273,-104.492,26519.171
1652668358.269,-19.043,-335.449,-78.125,-23.926,-53.223,26519.174
1652668358.273,-117.676,-701.172,-65.918,-74.707,41.992,26519.178
1652668358.277,-65.430,175.293,-55.664,-37.109,-75.684,26519.182
1652668358.281,30.273,286.133,-56.152,17.090,-55.176,26519.186
1652668358.281,4.883,53.711,-65.430,-16.113,-40.527,26519.186
1652668358.285,-85.449,144.043,-63.477,-66.895,-115.723,26519.190
1652668358.289,-79.590,277.344,-49.316,-43.945,-155.762,26519.194
1652668358.293,14.160,145.508,-51.758,16.602,-85.449,26519.198
1652668358.297,24.414,-145.020,-69.336,8.789,20.996,26519.202
1652668358.301,-70.312,-217.285,-84.473,-53.223,29.785,26519.206
1652668358.305,-98.145,-208.496,-94.238,-61.035,-32.227,26519.210
1652668358.308,-14.160,-125.000,-77.148,-0.977,-2.930,26519.214
1652668358.312,32.715,-703.125,-65.430,20.508,285.156,26519.217
1652668358.316,-53.223,-678.223,-70.312,-49.805,222.168,26519.221
1652668358.320,-104.004,209.473,-54.199,-79.102,-106.445,26519.225
1652668358.324,-43.457,90.332,-46.875,-20.996,-67.383,26519.229
1652668358.326,40.039,-199.219,-61.523,24.902,-0.977,26519.232
1652668358.330,-9.277,-124.512,-59.082,-21.973,-48.828,26519.236
1652668358.334,-101.562,182.129,-62.012,-70.312,-157.227,26519.240
1652668358.338,-73.730,-270.996,-65.918,-34.180,-81.543,26519.244
1652668358.342,23.926,-546.875,-77.637,24.414,83.984,26519.248
1652668358.346,25.879,-95.703,-78.613,6.836,28.320,26519.251
1652668358.350,-80.078,-183.105,-52.246,-53.711,-48.828,26519.255
1652668358.353,-106.445,-624.512,-42.969,-58.594,27.344,26519.259
1652668358.357,-3.418,-936.035,-54.199,-0.977,172.363,26519.263
1652668358.361,42.969,-116.211,-60.547,9.766,32.715,26519.267
1652668358.365,-57.617,263.184,-62.012,-57.129,-125.488,26519.271
1652668358.369,-105.469,-63.965,-76.172,-79.590,-123.047,26519.275
1652668358.371,-13.184,64.453,-64.941,-8.301,-98.145,26519.291
1652668358.375,56.152,328.125,-64.941,22.461,-93.750,26519.295
1652668358.379,-36.621,126.953,-83.984,-53.711,-108.887,26519.299
1652668358.383,-111.816,-94.727,-81.543,-83.008,-115.723,26519.303
1652668358.387,-50.293,22.949,-70.801,-22.461,-67.383,26519.307
1652668358.391,46.387,-13.672,-47.852,32.715,19.043,26519.311
1652668358.395,6.836,-184.570,-34.180,-10.742,32.715,26519.315
1652668358.398,-98.145,-709.961,-52.246,-62.012,147.461,26519.319
1652668358.402,-79.590,-416.992,-73.242,-42.480,58.594,26519.323
1652668358.406,25.391,295.410,-68.359,11.230,-89.844,26519.326
1652668358.410,19.531,-58.594,-60.059,-2.930,44.434,26519.330
1652668358.414,-83.008,-244.141,-54.199,-66.895,49.805,26519.334
1652668358.416,-103.027,-128.906,-74.219,-65.918,-62.500,26519.334
1652668358.420,-7.812,0.000,-95.703,-9.766,-77.637,26519.338
1652668358.424,50.293,-212.891,-70.801,11.719,58.105,26519.342
1652668358.428,-34.668,-642.090,-40.039,-42.969,105.469,26519.346
1652668358.432,-94.727,-53.223,-43.457,-73.242,-121.582,26519.350
1652668358.436,-25.879,-16.113,-58.105,-16.113,-93.750,26519.353
1652668358.440,36.133,-415.039,-75.684,8.301,48.828,26519.357
1652668358.443,-49.805,-320.312,-94.727,-60.547,-11.719,26519.361
1652668358.447,-118.164,71.777,-79.102,-86.426,-188.965,26519.365
1652668358.451,-49.805,221.680,-56.641,-22.461,-242.188,26519.369
1652668358.455,41.992,-383.301,-60.547,34.180,51.758,26519.373
1652668358.459,-4.395,-481.445,-62.988,-15.625,173.828,26519.377
1652668358.463,-103.516,241.699,-64.941,-78.613,-102.539,26519.380
1652668358.467,-79.590,36.621,-56.152,-41.992,-67.871,26519.384
1652668358.471,29.297,-243.652,-45.410,21.973,107.422,26519.388
1652668358.475,42.480,80.078,-50.293,14.160,27.832,26519.392
1652668358.479,-61.035,285.645,-63.477,-48.340,-162.598,26519.396
1652668358.483,-97.656,-99.609,-79.590,-62.988,-76.172,26519.399
1652668358.487,-16.602,-645.020,-85.449,-11.719,216.797,26519.403
1652668358.490,39.551,-231.934,-86.426,0.488,104.004,26519.407
1652668358.494,-42.969,376.953,-62.012,-54.199,-142.090,26519.411
1652668358.498,-103.516,7.812,-47.852,-65.918,-130.371,26519.415
1652668358.502,-15.137,-172.852,-52.734,-1.465,-55.176,26519.419
1652668358.506,84.961,223.145,-39.062,57.617,-33.691,26519.423
1652668358.506,-4.395,151.855,-53.223,-14.160,-40.527,26519.426
1652668358.510,-123.047,-409.180,-65.430,-91.309,22.461,26519.430
1652668358.514,-90.820,-491.699,-59.570,-59.082,88.867,26519.434
1652668358.518,10.742,153.809,-66.406,-8.301,-10.742,26519.438
1652668358.522,-2.441,233.887,-68.359,-38.574,-35.645,26519.442
1652668358.526,-105.957,-454.590,-69.824,-91.797,92.285,26519.446
1652668358.530,-96.680,-840.332,-77.148,-63.965,229.980,26519.449
1652668358.533,21.973,-20.508,-73.730,5.371,46.387,26519.453
1652668358.537,55.664,379.395,-45.898,16.113,-89.844,26519.457
1652668358.541,-47.852,-193.359,-51.270,-52.246,-50.293,26519.461
1652668358.545,-100.586,-184.082,-85.449,-87.402,-104.492,26519.465
1652668358.549,-8.301,313.477,-62.988,-30.762,-142.578,26519.469
1652668358.567,52.734,294.922,-54.688,8.789,-58.105,26519.472
1652668358.571,-34.180,37.598,-81.543,-43.457,-33.691,26519.476
1652668358.575,-100.098,60.059,-76.172,-66.895,-100.098,26519.480
1652668358.579,-37.109,276.367,-56.152,-18.066,-116.211,26519.484
1652668358.583,66.895,191.406,-41.992,40.039,-10.742,26519.488
1652668358.587,3.906,-233.887,-48.828,-5.371,124.023,26519.492
1652668358.591,-92.285,-312.500,-61.523,-60.059,7.324,26519.496
1652668358.594,-72.266,-165.527,-76.172,-36.621,-115.723,26519.499
1652668358.598,22.949,-128.906,-72.754,11.230,-18.066,26519.503
1652668358.602,28.320,-713.867,-64.453,4.395,218.750,26519.507
1652668358.606,-68.848,-499.023,-72.754,-48.340,121.582,26519.511
1652668358.610,-78.125,285.645,-58.105,-41.016,-121.094,26519.515
1652668358.611,14.160,-49.316,-42.969,14.648,21.973,26519.517
1652668358.615,44.434,-215.332,-41.992,12.695,57.617,26519.521
1652668358.619,-43.945,160.156,-52.734,-45.410,-86.426,26519.525
1652668358.623,-84.473,256.836,-77.148,-59.082,-146.484,26519.529
1652668358.627,-5.371,-183.594,-64.453,1.465,-54.688,26519.533
1652668358.631,56.152,-424.316,-52.246,28.809,56.152,26519.537
1652668358.635,-25.879,-235.352,-58.594,-37.598,17.578,26519.541
1652668358.638,-102.539,39.062,-72.754,-72.266,-104.004,26519.545
1652668358.642,-33.203,-405.273,-70.801,-3.906,35.156,26519.549
1652668358.646,63.965,-790.039,-45.898,53.711,254.395,26519.552
1652668358.650,20.996,-171.875,-46.875,0.488,61.035,26519.556
1652668358.654,-84.961,-133.789,-68.359,-61.035,-47.363,26519.560
1652668358.656,-72.266,-337.891,-61.523,-40.527,-15.137,26519.562
1652668358.660,37.109,-32.715,-42.969,26.855,22.949,26519.566
1652668358.664,27.832,333.008,-45.410,-2.930,0.000,26519.570
1652668358.668,-88.867,69.824,-60.059,-77.148,-86.426,26519.574
1652668358.672,-105.957,-147.461,-75.684,-62.012,-91.797,26519.578
1652668358.676,-16.602,-153.320,-87.402,-7.812,-5.859,26519.581
1652668358.680,25.391,-151.367,-80.078,4.883,49.805,26519.585
1652668358.683,-51.270,-277.832,-55.664,-39.551,-9.277,26519.589
1652668358.687,-104.492,-751.953,-66.406,-59.082,62.988,26519.593
1652668358.691,-30.273,-334.961,-77.148,-17.578,80.566,26519.597
1652668358.695,46.387,311.035,-71.289,10.742,-63.477,26519.601
1652668358.699,-23.438,22.949,-73.730,-37.109,-36.133,26519.605
1652668358.703,-109.375,-369.629,-65.918,-73.242,-11.719,26519.608
1652668358.707,-62.500,-355.469,-64.941,-33.691,-16.113,26519.612
1652668358.711,38.086,45.410,-67.383,15.625,-14.160,26519.616
1652668358.715,7.324,-184.082,-67.383,-10.254,43.945,26519.620
1652668358.719,-83.984,-735.840,-61.035,-49.316,107.910,26519.624
1652668358.723,-69.824,-432.617,-60.547,-37.598,-39.551,26519.628
1652668358.727,25.391,-82.031,-80.566,4.883,-60.059,26519.632
1652668358.730,41.016,-396.973,-82.031,2.441,113.281,26519.636
1652668358.734,-75.684,-661.133,-90.820,-71.289,125.977,26519.640
1652668358.738,-93.750,129.395,-76.660,-73.730,-122.070,26519.643
1652668358.742,9.277,302.734,-52.734,1.465,-126.465,26519.647
1652668358.746,35.156,102.539,-62.988,4.395,-39.062,26519.651
1652668358.746,-63.965,216.309,-72.754,-65.918,-99.609,26519.652
1652668358.750,-109.375,318.848,-62.988,-79.102,-183.105,26519.656
1652668358.754,-18.066,213.379,-41.504,-9.766,-122.070,26519.660
1652668358.758,49.805,94.238,-64.453,22.461,-16.113,26519.664
1652668358.762,-27.344,64.941,-81.543,-38.086,2.441,26519.668
1652668358.766,-100.098,-107.910,-74.707,-65.918,16.113,26519.671
1652668358.770,-51.270,-112.305,-79.102,-19.043,-11.230,26519.675
1652668358.773,36.133,-693.359,-81.543,27.832,226.074,26519.679
1652668358.777,2.930,-696.777,-72.754,-11.719,239.258,26519.683
1652668358.781,-82.520,250.488,-50.293,-71.289,-98.633,26519.687
1652668358.785,-77.148,144.043,-43.457,-56.641,-95.215,26519.691
1652668358.789,14.648,39.551,-51.270,1.953,-71.289,26519.695
1652668358.791,46.387,185.059,-58.594,13.184,-53.711,26519.709
1652668358.795,-45.898,32.227,-61.523,-37.598,-67.383,26519.713
1652668358.799,-95.215,-364.258,-81.543,-57.129,-10.742,26519.717
1652668358.803,-19.043,-378.906,-85.938,-7.812,140.625,26519.721
1652668358.807,48.828,276.367,-59.082,25.879,32.227,26519.725
1652668358.811,-34.668,206.055,-48.340,-38.574,-67.383,26519.728
1652668358.815,-109.863,-531.738,-46.875,-73.242,28.809,26519.732
1652668358.818,-39.551,-814.453,-71.777,-20.996,130.859,26519.736
1652668358.822,56.152,80.566,-90.332,22.461,-10.254,26519.740
1652668358.826,2.441,434.082,-67.383,-13.672,-110.352,26519.744
1652668358.830,-93.750,-89.844,-49.805,-63.965,-45.898,26519.748
1652668358.834,-68.359,-77.637,-46.875,-44.922,-30.273,26519.752
1652668358.836,36.621,411.621,-57.129,11.719,-27.832,26519.770
1652668358.840,21.484,332.031,-78.125,-12.207,-19.043,26519.774
1652668358.844,-83.984,8.789,-87.402,-78.613,-94.727,26519.778
1652668358.848,-85.938,130.371,-80.078,-61.035,-122.070,26519.782
1652668358.852,11.719,219.727,-69.336,2.930,-115.234,26519.786
1652668358.856,48.340,-49.805,-52.734,13.184,-51.270,26519.790
1652668358.860,-45.898,-625.488,-62.988,-41.016,140.137,26519.794
1652668358.863,-100.586,-441.895,-97.168,-67.871,69.824,26519.798
1652668358.867,-5.859,288.086,-66.895,-7.812,-95.703,26519.802
1652668358.871,76.172,91.797,-26.855,46.387,-13.672,26519.806
1652668358.875,-32.715,-356.445,-55.664,-31.250,33.691,26519.809
1652668358.879,-120.117,-46.875,-81.055,-89.844,-27.832,26519.813
1652668358.882,-57.617,105.957,-71.777,-38.086,-57.129,26519.801
1652668358.886,48.340,-314.453,-50.293,30.273,118.164,26519.805
1652668358.890,6.836,-751.465,-53.711,-7.324,183.105,26519.809
1652668358.894,-101.074,-290.039,-81.543,-81.055,-137.695,26519.813
1652668358.898,-70.312,143.066,-77.148,-46.387,-320.312,26519.817
1652668358.902,35.156,-366.211,-74.219,30.273,-83.984,26519.821
1652668358.906,31.250,-505.859,-76.660,14.648,83.008,26519.825
1652668358.909,-67.383,-18.066,-63.965,-55.176,-93.750,26519.829
1652668358.913,-92.285,164.062,-55.664,-61.035,-187.500,26519.833
1652668358.917,-9.277,-253.418,-50.781,-4.883,19.531,26519.836
1652668358.921,41.992,-204.590,-41.992,10.254,111.816,26519.840
1652668358.925,-42.969,272.949,-45.410,-43.945,-62.500,26519.844
1652668358.941,-96.680,181.641,-74.707,-62.500,-154.785,26519.847
1652668358.945,-24.414,-521.973,-84.961,-9.277,98.633,26519.851
1652668358.949,39.062,-462.891,-66.895,23.926,187.012,26519.855
1652668358.953,-27.832,264.648,-52.734,-30.273,-94.238,26519.859
1652668358.957,-105.469,73.242,-66.895,-75.684,-159.180,26519.863
1652668358.961,-75.195,-461.914,-77.637,-38.086,-11.719,26519.866
1652668358.965,34.668,-404.297,-58.105,35.645,84.473,26519.870
1652668358.968,0.000,137.695,-62.988,-6.348,-37.109,26519.874
1652668358.972,-113.281,32.227,-76.172,-73.242,-85.449,26519.878
1652668358.976,-83.984,-606.934,-60.059,-37.598,72.754,26519.882
1652668358.980,27.832,-228.027,-50.781,24.414,53.223,26519.886
1652668358.984,24.414,294.434,-52.734,1.953,-106.934,26519.890
1652668358.986,-85.938,-270.508,-61.035,-62.500,-1.953,26519.891
1652668358.990,-118.164,-508.789,-84.961,-58.594,86.914,26519.895
1652668358.994,-31.738,111.328,-93.262,-9.766,-28.320,26519.899
1652668358.998,18.555,333.984,-74.707,5.371,-69.824,26519.903
1652668359.002,-75.684,-322.754,-66.406,-52.734,86.426,26519.907
1652668359.006,-118.652,-793.457,-59.570,-69.824,114.746,26519.911
1652668359.010,-23.438,-333.984,-45.410,-12.695,-4.395,26519.915
1652668359.013,54.688,101.074,-53.711,15.137,37.109,26519.919
1652668359.017,-27.344,-367.188,-62.012,-46.875,91.309,26519.923
1652668359.021,-111.816,-737.793,-63.477,-85.938,123.047,26519.927
1652668359.025,-57.129,109.375,-61.523,-41.992,-66.895,26519.931
1652668359.029,45.898,258.789,-52.246,20.996,-69.824,26519.934
1652668359.031,21.484,30.762,-32.715,-6.836,-48.828,26519.937
1652668359.035,-81.543,62.500,-42.969,-66.406,-119.141,26519.941
1652668359.039,-87.402,179.688,-87.891,-57.129,-136.230,26519.945
1652668359.043,11.719,130.371,-87.891,5.859,-91.797,26519.949
1652668359.047,44.922,-61.523,-56.152,13.672,-38.574,26519.952
1652668359.051,-59.570,-187.988,-54.688,-59.570,-12.207,26519.956
1652668359.055,-104.004,-300.293,-67.383,-79.590,-50.781,26519.960
1652668359.058,-11.719,-239.746,-61.523,-15.137,11.719,26519.964
1652668359.062,42.969,-769.043,-52.246,20.508,293.945,26519.968
1652668359.066,-40.039,-708.008,-51.270,-42.480,169.922,26519.972
1652668359.070,-85.938,77.637,-46.875,-70.801,-186.035,26519.976
1652668359.074,-14.648,-105.957,-38.086,-10.742,-90.332,26519.980
1652668359.076,57.129,-228.027,-49.805,26.367,44.922,26519.995
1652668359.080,-10.254,-32.227,-70.801,-34.668,-12.695,26519.999
1652668359.084,-99.609,221.680,-73.242,-82.031,-174.805,26520.003
1652668359.088,-48.828,-232.910,-51.758,-27.832,-47.363,26520.007
1652668359.092,57.617,-639.648,-35.156,38.574,154.785,26520.011
1652668359.096,22.461,-186.523,-39.551,-4.395,2.930,26520.015
1652668359.100,-86.426,-59.570,-48.340,-77.637,-102.051,26520.019
1652668359.103,-92.773,-557.617,-71.289,-58.105,49.805,26520.022
1652668359.107,10.254,-648.926,-73.242,18.555,163.086,26520.026
1652668359.111,40.527,211.914,-54.688,10.742,-8.301,26520.030
1652668359.115,-76.660,188.965,-53.223,-68.848,-132.812,26520.034
1652668359.119,-109.375,-307.617,-46.875,-70.312,-73.242,26520.038
1652668359.121,-19.043,-48.340,-43.945,-13.184,-39.062,26520.027
1652668359.125,40.527,425.781,-50.293,4.883,-73.242,26520.031
1652668359.129,-41.016,186.523,-56.641,-52.734,-123.535,26520.035
1652668359.133,-106.445,-97.168,-62.500,-76.660,-159.180,26520.039
1652668359.137,-42.969,122.559,-60.059,-20.996,-127.441,26520.043
1652668359.141,57.129,125.977,-45.898,33.203,-48.828,26520.046
1652668359.145,1.465,-125.000,-54.199,-22.949,-27.344,26520.050
1652668359.148,-100.586,-635.742,-80.566,-77.148,59.082,26520.054
1652668359.152,-63.477,-331.055,-81.055,-28.320,26.367,26520.058
1652668359.156,38.086,404.297,-70.801,26.855,-89.355,26520.062
1652668359.160,31.250,87.891,-62.500,2.930,20.508,26520.066
1652668359.164,-73.730,-255.859,-56.152,-53.711,62.012,26520.070
1652668359.168,-79.102,-137.695,-54.688,-41.504,-80.078,26520.084
1652668359.172,27.832,-76.660,-47.852,27.832,-56.641,26520.088
1652668359.176,57.617,-278.320,-42.480,47.363,151.367,26520.092
1652668359.180,-52.734,-670.898,-63.965,-22.461,216.797,26520.096
1652668359.184,-95.215,-163.086,-82.520,-57.129,-33.203,26520.100
1652668359.188,-11.230,89.355,-70.312,0.000,-42.969,26520.104
1652668359.192,55.176,-483.398,-64.941,45.410,263.184,26520.107
1652668359.195,-12.695,-665.527,-54.688,-8.301,265.137,26520.111
1652668359.199,-96.191,75.195,-46.387,-61.523,-82.031,26520.115
1652668359.203,-56.152,260.742,-50.293,-27.344,-161.133,26520.119
1652668359.207,41.504,32.227,-41.992,27.344,-70.312,26520.123
1652668359.211,13.184,133.301,-41.504,-3.418,-41.504,26520.127
1652668359.211,-80.078,320.312,-46.875,-57.617,-83.496,26520.130
1652668359.215,-76.172,149.902,-73.730,-41.504,-115.723,26520.134
1652668359.219,41.504,-35.645,-91.309,32.227,-73.730,26520.138
1652668359.223,41.016,129.395,-80.078,7.812,-64.941,26520.142
1652668359.227,-87.891,75.684,-66.406,-83.496,-43.945,26520.146
1652668359.231,-114.258,-191.895,-56.152,-86.914,-55.176,26520.150
1652668359.235,-12.207,-797.363,-53.223,-6.348,274.902,26520.154
1652668359.238,44.922,-633.789,-44.434,15.137,341.797,26520.158
1652668359.242,-54.199,212.891,-51.758,-65.918,-103.027,26520.162
1652668359.246,-100.098,-53.711,-61.523,-75.195,-131.348,26520.166
1652668359.250,-14.160,-174.316,-61.523,-10.742,-16.113,26520.169
1652668359.254,67.871,223.145,-67.383,31.250,-40.527,26520.173
1652668359.256,-0.977,76.660,-94.238,-17.090,-110.840,26520.176
1652668359.260,-89.844,-509.766,-95.703,-59.570,-38.574,26520.180
1652668359.264,-54.199,-615.723,-65.430,-43.457,17.090,26520.184
1652668359.268,42.480,101.562,-45.410,-0.977,-79.102,26520.187
1652668359.272,25.879,330.566,-36.621,-10.742,-124.023,26520.191
1652668359.276,-75.684,-284.180,-41.504,-60.547,19.043,26520.195
1652668359.280,-74.707,-582.520,-57.129,-49.805,131.348,26520.199
1652668359.283,17.578,-212.891,-72.266,0.977,82.031,26520.203
1652668359.287,55.176,50.781,-55.664,17.090,4.395,26520.207
1652668359.291,-34.180,-468.262,-49.316,-32.227,35.156,26520.211
1652668359.295,-87.402,-693.848,-72.266,-46.875,88.379,26520.215
1652668359.299,-2.441,144.531,-103.516,-0.977,-96.191,26520.219
1652668359.316,57.617,261.230,-110.840,19.531,-79.102,26520.222
1652668359.320,-29.785,83.496,-75.684,-44.434,-23.438,26520.226
1652668359.324,-89.355,151.855,-53.223,-74.219,-91.309,26520.230
1652668359.328,-25.879,309.082,-55.176,-27.832,-114.746,26520.234
1652668359.332,58.594,176.270,-47.852,28.320,-37.598,26520.238
1652668359.336,17.578,-239.746,-36.133,0.000,44.922,26520.241
1652668359.340,-77.637,-290.039,-41.504,-50.781,25.391,26520.245
1652668359.343,-63.477,78.613,-64.941,-29.297,-61.035,26520.249
1652668359.347,30.762,122.559,-81.055,22.461,-24.414,26520.253
1652668359.351,0.977,-472.656,-88.379,-7.812,140.625,26520.257
1652668359.355,-97.168,-372.070,-90.332,-69.824,63.965,26520.261
1652668359.359,-79.102,114.258,-60.059,-37.598,-93.750,26520.265
1652668359.361,33.691,-106.934,-37.109,41.504,89.844,26520.267
1652668359.365,53.223,-667.480,-48.828,37.109,324.219,26520.271
1652668359.369,-58.594,-173.828,-68.359,-42.969,55.176,26520.275
1652668359.373,-87.402,272.949,-64.453,-44.922,-136.230,26520.279
1652668359.377,10.742,4.883,-36.621,30.273,-43.457,26520.283
1652668359.381,60.547,-181.152,-43.457,35.645,87.402,26520.286
1652668359.385,-39.551,-164.062,-76.660,-43.457,-9.277,26520.290
1652668359.388,-114.746,70.801,-77.148,-68.848,-194.336,26520.294
1652668359.392,-46.387,-416.992,-62.012,-14.160,-19.531,26520.298
1652668359.396,35.645,-708.984,-67.383,19.531,144.531,26520.302
1652668359.400,-10.254,160.645,-65.430,-37.598,-53.223,26520.306
1652668359.404,-89.355,165.527,-45.898,-76.172,-190.430,26520.310
1652668359.408,-46.875,-117.188,-29.297,-23.926,-198.730,26520.313
1652668359.412,53.711,-63.965,-41.016,36.133,-40.039,26520.317
1652668359.416,21.973,58.594,-74.219,-15.625,-16.602,26520.321
1652668359.420,-83.008,56.152,-77.148,-80.566,-161.133,26520.325
1652668359.424,-73.730,-322.754,-60.059,-49.316,-140.625,26520.329
1652668359.428,7.812,-364.746,-68.848,-3.418,-5.371,26520.332
1652668359.432,14.160,-152.832,-76.660,-7.324,43.457,26520.336
1652668359.435,-76.172,-174.316,-70.312,-60.547,-65.918,26520.340
1652668359.439,-122.559,-698.730,-73.242,-74.219,17.578,26520.344
1652668359.443,-40.527,-352.051,-62.988,-15.625,38.086,26520.348
1652668359.447,50.293,376.953,-42.480,29.785,-30.273,26520.352
1652668359.451,-20.508,85.449,-48.828,-27.832,-11.719,26520.356
1652668359.451,-89.844,-321.777,-64.941,-59.570,-64.941,26520.357
1652668359.455,-27.832,-136.719,-67.383,-3.418,-107.422,26520.360
1652668359.459,49.805,343.750,-76.172,20.508,-102.539,26520.364
1652668359.463,-4.883,-114.258,-76.660,-19.043,43.457,26520.368
1652668359.467,-100.586,-649.902,-68.848,-61.523,130.371,26520.372
1652668359.471,-78.125,-244.141,-63.477,-40.527,46.387,26520.376
1652668359.475,29.297,-20.020,-49.316,24.414,34.180,26520.380
1652668359.478,30.762,-402.344,-58.594,19.531,148.926,26520.384
1652668359.482,-77.637,-926.758,-72.266,-40.527,236.816,26520.388
1652668359.486,-92.773,-203.613,-59.570,-47.363,-7.812,26520.392
1652668359.490,-0.488,311.035,-56.641,6.348,-124.512,26520.396
1652668359.494,52.246,129.883,-57.129,24.414,-17.578,26520.399
1652668359.496,-23.926,219.727,-44.434,-19.043,-78.613,26520.416
1652668359.500,-92.773,301.758,-60.547,-49.805,-157.715,26520.420
1652668359.504,-39.062,134.277,-70.801,-20.508,-125.000,26520.424
1652668359.508,42.969,65.918,-74.707,20.020,-39.062,26520.428
1652668359.512,-26.855,179.688,-78.125,-32.227,-74.219,26520.432
1652668359.516,-110.352,-57.129,-53.711,-76.172,-68.359,26520.435
1652668359.520,-55.664,-244.629,-36.133,-26.367,-75.195,26520.439
1652668359.523,33.691,-758.301,-50.293,30.273,209.961,26520.443
1652668359.527,1.953,-606.934,-73.730,-14.160,259.766,26520.447
1652668359.531,-92.285,253.906,-70.801,-74.219,-160.645,26520.451
1652668359.535,-71.777,-3.906,-46.387,-33.691,-161.621,26520.455
1652668359.539,13.184,-166.504,-57.129,8.789,-58.594,26520.459
1652668359.541,10.742,24.902,-74.219,-20.020,-32.715,26520.459
1652668359.545,-74.219,-59.570,-63.965,-63.965,-134.766,26520.463
1652668359.549,-95.215,-474.121,-64.941,-47.852,-151.367,26520.467
1652668359.553,-12.207,-550.293,-74.219,11.230,0.977,26520.471
1652668359.557,34.180,94.727,-72.754,12.207,-78.125,26520.475
1652668359.561,-52.246,-30.762,-56.152,-53.223,-120.605,26520.479
1652668359.565,-107.910,-495.117,-42.969,-64.453,8.789,26520.483
1652668359.568,-37.598,-284.668,-54.199,-11.230,-34.668,26520.486
1652668359.572,38.574,251.465,-70.312,12.207,-64.453,26520.490
1652668359.576,-23.438,302.734,-83.984,-39.551,-105.469,26520.494
1652668359.580,-106.934,-470.703,-72.754,-65.430,79.590,26520.498
1652668359.584,-71.777,-783.203,-51.270,-28.809,278.320,26520.502
1652668359.586,42.969,110.352,-49.316,26.367,8.301,26520.505
1652668359.590,35.645,266.113,-49.316,9.766,-44.922,26520.509
1652668359.594,-81.543,-80.078,-56.641,-62.988,-58.594,26520.513
1652668359.598,-94.238,15.137,-50.781,-61.035,-111.328,26520.517
1652668359.602,19.531,265.137,-46.387,8.301,-73.242,26520.521
1652668359.606,48.828,53.711,-67.871,14.648,81.055,26520.525
1652668359.610,-63.965,-581.543,-81.055,-49.805,234.375,26520.529
1652668359.613,-89.355,-367.188,-65.430,-62.500,42.480,26520.533
1652668359.617,7.324,284.668,-58.105,0.000,-117.188,26520.537
1652668359.621,68.359,89.355,-56.152,41.992,-28.320,26520.541
1652668359.625,-29.785,-112.305,-46.875,-24.414,-5.371,26520.544
1652668359.629,-102.051,172.363,-47.363,-63.965,-113.281,26520.548
1652668359.646,-25.879,65.918,-41.504,-5.371,-109.375,26520.565
1652668359.650,53.711,-347.168,-45.898,38.574,142.090,26520.569
1652668359.654,-2.930,-724.121,-50.293,-9.766,223.633,26520.573
1652668359.658,-78.125,-191.406,-48.340,-53.223,-82.520,26520.577
1652668359.662,-56.152,308.594,-59.082,-36.621,-183.105,26520.581
1652668359.666,19.043,-237.793,-70.801,4.883,105.957,26520.584
1652668359.670,20.020,-475.098,-68.848,-2.441,186.523,26520.588
1652668359.673,-67.383,55.664,-53.223,-55.664,-81.543,26520.592
1652668359.677,-91.309,302.246,-51.270,-59.082,-198.242,26520.596
1652668359.681,-6.348,-257.812,-64.941,-1.953,3.418,26520.600
1652668359.685,28.320,-334.473,-65.430,-1.953,79.590,26520.604
1652668359.689,-60.059,252.930,-57.129,-65.918,-143.555,26520.608
1652668359.691,-97.168,189.941,-58.105,-65.918,-163.574,26520.596
1652668359.695,-7.324,45.898,-59.570,-1.953,-60.059,26520.600
1652668359.699,77.637,230.469,-53.711,40.527,-13.184,26520.604
1652668359.703,-5.371,330.566,-42.480,-24.902,-90.332,26520.608
1652668359.707,-111.816,80.566,-42.480,-83.008,-92.773,26520.612
1652668359.711,-70.312,-340.332,-42.969,-42.969,137.207,26520.616
1652668359.715,36.133,-287.598,-45.410,13.184,168.945,26520.620
1652668359.718,6.836,48.340,-75.195,-31.738,23.926,26520.624
1652668359.722,-76.172,-49.316,-56.152,-66.406,-22.461,26520.628
1652668359.726,-48.828,-380.859,-28.320,-18.066,-3.418,26520.632
1652668359.730,45.898,77.637,-44.434,25.879,13.184,26520.635
1652668359.734,25.391,438.477,-56.641,-15.625,-53.711,26520.639
1652668359.736,-83.496,-148.438,-66.406,-81.543,-73.242,26520.642
1652668359.740,-94.238,-881.348,-66.406,-57.129,147.949,26520.646
1652668359.744,2.930,-301.758,-62.012,-1.465,76.172,26520.650
1652668359.748,39.551,355.957,-61.523,3.906,-105.957,26520.654
1652668359.752,-60.547,7.812,-63.965,-56.641,-94.238,26520.658
1652668359.756,-93.750,-290.039,-68.848,-72.266,-113.770,26520.662
1652668359.760,-14.648,-244.629,-78.125,-10.742,-83.008,26520.666
1652668359.763,47.852,-8.789,-97.656,17.578,-9.277,26520.670
1652668359.767,-15.625,-397.461,-76.660,-27.832,121.094,26520.673
1652668359.771,-101.074,-957.520,-41.016,-58.105,177.734,26520.677
1652668359.775,-65.430,-170.898,-51.270,-32.227,-31.738,26520.681
1652668359.779,32.715,269.531,-64.453,13.672,-82.520,26520.685
1652668359.781,4.883,4.883,-55.176,-13.184,-50.781,26520.687
1652668359.785,-76.660,97.168,-45.898,-58.105,-118.652,26520.691
1652668359.789,-64.453,250.488,-37.109,-33.203,-139.648,26520.695
1652668359.793,3.418,169.922,-60.059,11.230,-78.613,26520.699
1652668359.797,0.488,-46.387,-74.219,-13.672,-11.230,26520.703
1652668359.801,-79.102,-203.125,-72.754,-69.336,-57.129,26520.706
1652668359.805,-90.820,-279.297,-79.590,-53.223,-71.777,26520.710
1652668359.808,-12.207,-247.559,-72.754,3.418,-46.875,26520.714
1652668359.812,28.320,-638.672,-67.383,13.184,172.363,26520.718
1652668359.816,-63.477,-379.883,-75.195,-58.594,128.906,26520.722
1652668359.820,-110.352,87.402,-75.684,-71.289,-140.625,26520.726
1652668359.824,-34.668,-321.777,-57.129,-11.719,-61.035,26520.730
1652668359.826,44.922,-514.160,-47.852,31.738,82.031,26520.732
1652668359.830,-17.090,-122.559,-56.641,-24.414,-10.742,26520.736
1652668359.834,-98.145,245.117,-52.246,-67.871,-165.527,26520.740
1652668359.838,-57.617,-250.488,-54.199,-19.043,-43.457,26520.744
1652668359.842,30.762,-511.719,-72.754,25.391,99.609,26520.748
1652668359.846,7.324,-131.348,-85.449,-12.695,39.062,26520.751
1652668359.850,-92.773,-98.633,-75.195,-67.871,-26.855,26520.755
1652668359.853,-82.520,-532.227,-47.852,-37.109,54.199,26520.759
1652668359.857,20.020,-684.082,-40.527,24.414,182.617,26520.763
1652668359.861,39.551,194.336,-48.340,15.625,9.277,26520.767
1652668359.865,-49.805,293.457,-52.734,-33.691,-128.418,26520.771
1652668359.869,-90.332,-54.688,-57.129,-47.363,-164.062,26520.775
1652668359.886,-14.160,113.770,-56.641,-3.906,-97.656,26520.792
1652668359.890,46.875,198.730,-76.172,15.137,14.160,26520.795
1652668359.894,-45.898,-74.707,-82.520,-48.340,1.465,26520.799
1652668359.898,-116.699,-267.090,-74.219,-80.078,-11.719,26520.803
1652668359.902,-36.621,-26.367,-62.012,-25.879,-0.977,26520.807
1652668359.906,61.035,35.156,-42.969,34.180,31.738,26520.811
1652668359.910,-8.789,-214.844,-63.965,-23.926,9.766,26520.815
1652668359.913,-98.145,-693.848,-74.219,-71.777,117.188,26520.819
1652668359.917,-53.223,-412.598,-54.199,-28.320,110.352,26520.823
1652668359.921,39.551,385.254,-37.109,21.973,-71.777,26520.827
1652668359.925,23.438,113.770,-41.016,3.906,-18.555,26520.831
1652668359.929,-88.867,-171.387,-75.684,-67.871,-53.223,26520.835
1652668359.917,-103.027,-110.352,-87.402,-64.941,-68.848,26520.822
1652668359.921,0.977,100.586,-60.547,2.441,-43.457,26520.826
1652668359.925,30.762,-73.242,-55.176,0.000,48.828,26520.829
1652668359.929,-55.176,-461.426,-47.363,-46.387,79.102,26520.833
1652668359.933,-79.590,-75.684,-42.969,-43.945,-80.566,26520.837
1652668359.937,-11.230,59.082,-56.641,1.953,-9.277,26520.841
1652668359.941,43.457,-453.125,-66.406,29.297,231.445,26520.845
1652668359.944,-18.066,-642.090,-73.242,-17.090,250.488,26520.849
1652668359.948,-82.520,61.523,-63.477,-53.711,-66.406,26520.853
1652668359.952,-47.363,333.008,-55.664,-27.344,-185.059,26520.857
1652668359.956,35.645,-299.316,-54.688,27.344,80.078,26520.861
1652668359.960,-3.906,-643.555,-58.594,-7.324,149.414,26520.865
1652668359.961,-105.957,168.457,-64.453,-76.172,-148.926,26520.881
1652668359.965,-75.684,227.051,-48.340,-42.969,-149.414,26520.885
1652668359.969,35.156,31.250,-46.875,24.414,-15.625,26520.889
1652668359.973,47.852,249.512,-44.922,22.461,-57.617,26520.893
1652668359.977,-58.105,242.188,-65.430,-40.039,-174.316,26520.897
1652668359.981,-90.820,-30.273,-91.797,-45.410,-114.258,26520.901
1652668359.985,7.324,-617.188,-57.617,25.879,196.777,26520.904
1652668359.988,44.922,-540.039,-55.664,17.090,229.980,26520.908
1652668359.992,-57.617,165.527,-70.801,-71.289,-75.195,26520.912
1652668359.996,-108.398,9.277,-62.012,-76.172,-135.254,26520.916
1652668360.000,-29.297,-243.164,-55.176,-14.160,-5.371,26520.920
1652668360.004,39.062,239.258,-55.176,7.812,46.875,26520.924
1652668360.006,-24.414,278.809,-41.504,-37.109,1.465,26520.926
1652668360.010,-84.473,-283.203,-33.203,-51.270,41.504,26520.930
1652668360.014,-40.039,-469.238,-64.941,-15.137,63.477,26520.934
1652668360.018,49.805,224.609,-84.961,25.391,-38.086,26520.938
1652668360.022,14.648,389.160,-76.660,-10.742,-82.520,26520.942
1652668360.026,-85.449,-162.598,-82.520,-63.477,-25.391,26520.946
1652668360.030,-73.242,-370.117,-85.938,-46.387,-17.578,26520.949
1652668360.033,20.020,67.871,-77.637,9.277,-46.387,26520.953
1652668360.037,28.809,444.824,-78.125,-0.488,-86.426,26520.957
1652668360.041,-69.336,-290.039,-56.152,-57.129,-0.488,26520.961
1652668360.045,-87.891,-768.066,-36.133,-43.457,103.027,26520.965
1652668360.049,8.301,-0.488,-49.316,7.324,-26.855,26520.969
1652668360.066,65.430,290.039,-51.270,25.391,-79.590,26520.972
1652668360.070,-27.344,-110.352,-51.270,-24.902,-24.414,26520.975
1652668360.074,-105.469,-125.977,-85.938,-65.918,-79.590,26520.979
1652668360.078,-39.551,230.957,-97.656,-20.996,-134.277,26520.983
1652668360.082,49.805,225.586,-83.008,28.320,-25.879,26520.987
1652668360.086,-18.555,-192.871,-85.449,-32.227,112.305,26520.991
1652668360.090,-113.770,-349.609,-82.520,-77.637,63.477,26520.995
1652668360.093,-57.129,1.465,-65.918,-23.438,-124.023,26520.999
1652668360.097,48.340,40.039,-65.430,35.156,-67.383,26521.003
1652668360.101,14.160,-554.199,-56.152,5.371,96.680,26521.007
1652668360.105,-59.570,-298.828,-31.250,-31.250,-13.672,26521.011
1652668360.109,-62.500,217.773,-58.594,-39.062,-200.684,26521.015
1652668360.112,-7.812,-224.121,-88.379,-17.578,15.137,26521.018
1652668360.116,8.789,-612.793,-74.219,-16.113,214.844,26521.022
1652668360.120,-79.590,-220.703,-76.660,-80.078,-11.719,26521.026
1652668360.124,-93.262,162.109,-74.707,-78.125,-190.918,26521.030
1652668360.128,-6.348,-270.508,-57.617,-8.301,3.906,26521.034
1652668360.132,42.969,-720.215,-54.688,15.625,169.922,26521.038
1652668360.136,-35.156,-390.137,-73.730,-48.828,-5.859,26521.041
1652668360.139,-91.797,-166.992,-94.238,-75.684,-92.773,26521.045
1652668360.143,-23.438,-587.402,-91.309,-10.254,40.039,26521.049
1652668360.147,66.895,-686.523,-54.688,44.434,212.891,26521.053
1652668360.151,10.742,96.680,-43.457,-19.043,-5.371,26521.057
1652668360.155,-100.586,104.492,-66.895,-84.473,-141.602,26521.061
1652668360.156,-65.430,-96.680,-64.941,-38.086,-91.797,26521.061
1652668360.160,48.828,86.426,-52.734,35.156,-57.129,26521.065
1652668360.164,33.203,278.809,-51.758,5.859,-52.246,26521.069
1652668360.168,-73.730,75.684,-51.270,-49.316,-108.398,26521.073
1652668360.172,-89.844,-301.758,-62.988,-41.016,-94.238,26521.077
1652668360.176,-5.371,-270.996,-72.754,-5.859,51.758,26521.081
1652668360.180,22.461,-126.953,-74.219,-7.812,110.840,26521.085
1652668360.183,-72.754,-186.035,-55.664,-57.617,-58.594,26521.089
1652668360.187,-106.445,-797.363,-40.039,-55.176,71.289,26521.093
1652668360.191,-11.719,-700.195,-39.551,6.836,157.715,26521.097
1652668360.195,60.547,259.277,-33.691,29.785,-60.547,26521.101
1652668360.199,-22.461,122.559,-46.387,-36.133,-93.750,26521.104
1652668360.201,-92.285,-333.984,-59.570,-64.941,-60.059,26521.107
1652668360.205,-34.180,-66.895,-57.617,-18.555,-66.895,26521.111
1652668360.209,37.598,383.301,-57.129,6.348,-101.562,26521.115
1652668360.213,-12.207,-56.152,-62.500,-41.016,17.578,26521.119
1652668360.217,-94.727,-475.098,-65.918,-82.031,45.410,26521.123
1652668360.221,-72.266,-141.113,-58.105,-56.641,-109.863,26521.127
1652668360.225,29.297,-13.672,-51.270,5.859,-47.852,26521.131
1652668360.228,43.457,-371.582,-49.316,9.277,139.160,26521.135
1652668360.232,-70.312,-889.648,-47.852,-57.129,250.488,26521.139
1652668360.236,-83.008,-165.527,-62.012,-56.641,-38.086,26521.143
1652668360.240,24.902,392.090,-60.059,19.531,-139.160,26521.147
1652668360.244,36.133,175.293,-64.941,8.301,-47.852,26521.150
1652668360.246,-61.523,181.152,-66.895,-63.965,-116.699,26521.152
1652668360.250,-86.426,337.891,-43.945,-58.594,-181.152,26521.156
1652668360.254,-10.254,235.840,-50.781,5.859,-125.977,26521.159
1652668360.258,50.293,140.137,-76.172,18.555,-21.484,26521.163
1652668360.262,-28.320,185.547,-66.406,-52.734,-62.012,26521.167
1652668360.266,-97.168,-43.945,-40.527,-74.219,-96.191,26521.171
1652668360.270,-39.062,-105.957,-43.945,-18.066,-62.500,26521.175
1652668360.273,38.574,-666.504,-50.293,37.598,206.543,26521.179
1652668360.277,2.930,-584.473,-47.852,-8.301,205.078,26521.183
1652668360.281,-75.684,308.594,-42.480,-61.523,-134.277,26521.187
1652668360.285,-49.316,-3.418,-47.852,-17.090,-86.426,26521.191
1652668360.289,46.387,-119.141,-79.590,38.086,67.383,26521.195
1652668360.291,30.762,100.586,-96.680,0.977,74.707,26521.209
1652668360.295,-75.684,166.504,-75.195,-66.895,-7.812,26521.213
1652668360.299,-84.473,-163.574,-53.223,-52.734,-46.875,26521.217
1652668360.303,7.812,-539.062,-54.688,5.859,139.648,26521.221
1652668360.307,32.715,121.094,-69.336,1.465,62.500,26521.225
1652668360.311,-64.453,166.504,-66.895,-65.430,-50.781,26521.229
1652668360.315,-104.980,-493.164,-61.523,-69.824,80.566,26521.233
1652668360.318,-37.109,-694.824,-61.523,-13.184,139.160,26521.237
1652668360.322,46.387,134.766,-70.312,17.090,-4.395,26521.241
1652668360.326,-9.766,399.414,-74.219,-33.691,-111.816,26521.244
1652668360.330,-85.938,20.508,-64.941,-61.035,-123.047,26521.248
1652668360.334,-60.059,8.301,-79.102,-29.297,-75.684,26521.252
1652668360.338,22.949,363.281,-83.008,6.836,-70.801,26521.256
1652668360.342,15.137,237.793,-54.199,-3.418,-78.125,26521.260
1652668360.346,-90.332,-239.746,-49.316,-53.711,-41.504,26521.264
1652668360.350,-94.727,-31.250,-46.387,-55.176,-45.898,26521.268
1652668360.354,0.977,380.859,-47.852,-2.930,-60.547,26521.272
1652668360.358,12.207,109.375,-65.918,-3.906,-4.395,26521.276
1652668360.362,-79.102,-588.379,-58.105,-54.199,224.609,26521.280
1652668360.365,-106.445,-317.871,-45.410,-58.594,112.793,26521.283
1652668360.369,-21.484,401.367,-53.711,-14.648,-109.375,26521.287
1652668360.373,30.273,190.430,-64.453,8.301,14.160,26521.291
1652668360.377,-56.641,-52.734,-67.871,-45.410,39.062,26521.295
1652668360.381,-117.188,151.855,-63.965,-63.965,-81.055,26521.299
1652668360.382,-49.805,83.496,-61.035,-11.719,-95.215,26521.301
1652668360.386,29.785,-287.598,-84.961,25.879,82.520,26521.305
1652668360.390,-33.203,-433.594,-85.449,-17.578,136.719,26521.309
1652668360.394,-107.910,51.270,-55.664,-65.918,-78.613,26521.313
1652668360.398,-61.035,157.715,-48.828,-27.344,-173.828,26521.317
1652668360.402,35.156,-384.277,-35.156,42.480,137.695,26521.321
1652668360.406,11.230,-655.762,-24.414,20.996,303.223,26521.325
1652668360.409,-90.332,-147.949,-43.945,-48.340,-3.906,26521.329
1652668360.413,-100.586,243.164,-60.059,-52.734,-152.344,26521.332
1652668360.417,-15.137,-385.742,-75.684,6.348,63.477,26521.336
1652668360.421,16.113,-578.125,-75.684,10.254,195.801,26521.340
1652668360.425,-68.359,192.383,-66.406,-60.547,-76.660,26521.344
1652668360.441,-96.191,145.020,-66.406,-61.035,-158.203,26521.361
1652668360.445,-5.859,-61.523,-56.641,7.812,-47.363,26521.365
1652668360.449,60.059,95.215,-57.129,32.227,4.395,26521.369
1652668360.453,-26.855,203.125,-62.988,-36.621,-125.977,26521.373
1652668360.457,-101.074,-8.301,-63.965,-65.430,-171.875,26521.377
1652668360.461,-28.809,-392.090,-54.199,-0.977,-49.316,26521.381
1652668360.465,63.965,-330.566,-44.434,42.480,31.250,26521.384
1652668360.468,-4.395,-124.023,-65.918,-28.320,-21.973,26521.388
1652668360.472,-88.867,-242.188,-67.383,-66.895,-98.145,26521.392
1652668360.476,-60.059,-833.984,-63.965,-13.184,111.328,26521.396
1652668360.480,25.391,-545.898,-75.684,29.785,139.160,26521.400
1652668360.484,16.113,218.750,-74.219,4.395,-81.543,26521.404
1652668360.486,-86.914,-239.258,-65.430,-52.246,-75.195,26521.406
1652668360.490,-74.219,-421.387,-35.156,-29.785,-58.594,26521.410
1652668360.494,22.949,98.633,-27.832,27.832,-65.430,26521.414
1652668360.498,28.809,392.578,-60.547,4.395,-71.777,26521.418
1652668360.502,-86.914,-139.160,-85.449,-73.242,-4.395,26521.422
1652668360.506,-127.930,-580.566,-73.730,-78.125,81.055,26521.426
1652668360.510,-20.508,-218.750,-52.246,-1.465,3.906,26521.430
1652668360.513,53.223,134.766,-54.688,33.203,-0.488,26521.433
1652668360.517,-36.133,-43.457,-58.594,-36.133,25.879,26521.437
1652668360.521,-100.098,-111.328,-73.730,-63.965,-52.734,26521.441
1652668360.525,-44.922,103.516,-83.008,-17.578,-54.199,26521.445
1652668360.529,35.156,129.395,-66.406,17.090,19.531,26521.449
1652668360.531,-0.488,-427.734,-50.293,-12.207,111.816,26521.437
1652668360.535,-85.938,-744.141,-43.457,-56.641,117.188,26521.440
1652668360.539,-70.312,85.449,-39.062,-48.340,-119.629,26521.444
1652668360.543,19.043,256.348,-43.945,4.395,-90.820,26521.448
1652668360.547,18.555,67.871,-64.453,-8.789,0.977,26521.452
1652668360.551,-78.125,-48.340,-77.637,-72.754,-16.602,26521.456
1652668360.555,-93.750,-63.477,-84.961,-76.660,-36.621,26521.460
1652668360.558,3.418,-93.750,-67.383,-3.418,19.043,26521.464
1652668360.562,43.457,-202.637,-59.082,19.043,98.145,26521.468
1652668360.566,-52.734,110.352,-82.520,-51.270,-13.184,26521.472
1652668360.570,-93.750,403.809,-75.195,-69.824,-168.457,26521.476
1652668360.574,-7.324,146.973,-48.340,0.000,-68.359,26521.480
1652668360.574,-7.324,146.973,-48.340,0.000,-68.359,26521.480
1652668360.577,62.012,-530.273,-49.805,42.969,306.641,26521.483
1652668360.581,-19.043,-374.023,-63.477,-26.367,253.418,26521.487
1652668360.585,-96.191,212.402,-65.430,-72.266,-63.477,26521.491
1652668360.589,-49.316,-55.664,-67.871,-26.367,-2.930,26521.495
1652668360.593,52.246,-399.902,-69.336,27.344,166.016,26521.499
1652668360.597,15.137,-29.785,-63.477,-11.230,129.395,26521.502
1652668360.601,-86.914,78.613,-54.688,-63.965,-13.672,26521.506
1652668360.604,-74.707,-360.840,-65.430,-38.574,-0.977,26521.510
1652668360.608,20.996,-522.949,-71.777,13.184,163.574,26521.514
1652668360.612,47.852,339.844,-56.641,0.977,28.809,26521.518
1652668360.616,-56.641,446.289,-63.477,-59.082,-133.789,26521.522
1652668360.620,-96.680,77.148,-77.637,-70.312,-156.738,26521.526
1652668360.621,-8.789,238.281,-73.242,-13.184,-117.676,26521.527
1652668360.625,41.992,473.633,-56.641,10.742,-108.398,26521.531
1652668360.629,-47.363,273.926,-61.523,-48.340,-160.645,26521.534
1652668360.633,-94.727,6.348,-66.406,-64.453,-193.359,26521.538
1652668360.637,-16.113,48.340,-59.082,-1.953,-104.980,26521.542
1652668360.641,56.152,34.668,-58.594,33.203,64.941,26521.546
1652668360.645,-10.742,-16.602,-57.129,-26.367,40.039,26521.550
1652668360.648,-89.355,-687.012,-49.805,-56.152,203.125,26521.554
1652668360.652,-56.641,-721.191,-44.922,-18.066,215.332,26521.558
1652668360.656,35.645,258.301,-43.457,24.902,-53.711,26521.562
1652668360.660,12.695,197.754,-58.594,-4.395,-45.410,26521.566
1652668360.664,-99.609,-69.336,-69.336,-74.707,-134.277,26521.570
1652668360.666,-87.891,-120.605,-56.152,-50.781,-203.613,26521.584
1652668360.670,17.578,37.598,-51.758,15.625,-164.062,26521.588
1652668360.674,40.527,-135.742,-39.062,20.996,-28.320,26521.592
1652668360.678,-53.711,-508.301,-45.410,-41.992,38.086,26521.596
1652668360.682,-97.168,17.090,-61.035,-63.965,-105.469,26521.600
1652668360.686,-11.230,96.191,-51.758,1.465,-83.496,26521.604
1652668360.690,56.152,-448.730,-49.805,33.203,149.902,26521.607
1652668360.693,-40.527,-853.027,-75.195,-34.180,208.984,26521.611
1652668360.697,-114.746,-243.164,-82.031,-77.148,-47.363,26521.615
1652668360.701,-51.758,233.887,-64.941,-33.203,-129.395,26521.619
1652668360.705,41.992,-108.887,-62.012,25.879,48.828,26521.623
1652668360.709,3.418,-70.801,-63.965,-11.719,102.539,26521.627
1652668360.711,-92.773,241.699,-56.152,-67.871,-114.258,26521.630
1652668360.715,-80.078,94.238,-38.574,-42.480,-173.828,26521.634
1652668360.719,33.691,0.488,-30.273,28.809,-31.250,26521.638
1652668360.723,24.902,173.340,-51.758,1.465,-13.184,26521.642
1652668360.727,-102.539,157.227,-64.941,-83.008,-130.859,26521.646
1652668360.731,-112.305,-201.172,-74.707,-77.637,-69.824,26521.650
1652668360.735,-3.418,-632.324,-83.496,3.906,255.371,26521.654
1652668360.738,46.387,-269.043,-63.965,24.414,199.219,26521.658
1652668360.742,-58.105,259.766,-62.012,-54.688,-139.648,26521.662
1652668360.746,-114.746,-109.863,-78.125,-73.730,-217.773,26521.666
1652668360.750,-17.578,-399.414,-59.570,2.930,-83.984,26521.670
1652668360.754,46.875,-196.777,-52.734,23.438,29.785,26521.673
1652668360.757,-47.852,-142.090,-68.359,-58.105,-49.316,26521.675
1652668360.761,-115.723,-407.227,-67.871,-80.078,-46.387,26521.679
1652668360.765,-50.781,-803.711,-65.918,-30.273,97.656,26521.683
1652668360.769,45.898,-202.637,-64.453,8.789,40.527,26521.687
1652668360.773,1.465,364.258,-59.570,-30.273,-90.820,26521.691
1652668360.777,-83.984,-305.176,-64.453,-56.152,-37.598,26521.695
1652668360.781,-52.734,-588.867,-72.754,-7.812,67.871,26521.699
1652668360.784,21.973,64.453,-59.082,17.578,0.977,26521.703
1652668360.788,-12.695,390.625,-59.082,-36.621,-67.383,26521.707
1652668360.792,-102.051,-312.988,-57.129,-81.543,-34.668,26521.711
1652668360.796,-97.656,-509.766,-64.453,-71.777,-52.246,26521.714
1652668360.800,3.418,248.047,-78.125,-25.879,-125.977,26521.718
1652668360.817,57.129,278.809,-67.871,3.418,-99.609,26521.723
1652668360.821,-45.410,-156.738,-54.688,-53.223,-68.359,26521.727
1652668360.825,-101.562,-171.875,-56.641,-64.453,-15.625,26521.731
1652668360.829,-15.625,215.820,-63.965,-2.441,-55.176,26521.735
1652668360.833,57.129,249.023,-62.500,13.184,-38.086,26521.739
1652668360.837,-7.812,-475.098,-61.035,-49.805,188.477,26521.743
1652668360.841,-78.125,-691.895,-66.406,-69.824,95.703,26521.747
1652668360.844,-35.645,36.621,-61.523,-26.367,-145.996,26521.751
1652668360.848,47.363,90.820,-49.316,22.949,-45.898,26521.755
1652668360.852,14.648,-413.574,-56.641,-6.348,56.641,26521.758
1652668360.856,-69.824,-209.961,-66.895,-70.801,-97.168,26521.762
1652668360.860,-48.828,124.023,-74.219,-52.734,-226.074,26521.766
1652668360.861,44.434,-265.137,-61.035,19.043,-27.344,26521.767
1652668360.865,42.969,-480.957,-53.223,9.277,76.172,26521.771
1652668360.869,-50.781,-20.508,-83.984,-65.918,-128.418,26521.775
1652668360.873,-64.941,103.516,-80.078,-45.898,-185.547,26521.778
1652668360.877,24.902,-267.578,-50.293,31.250,-39.062,26521.782
1652668360.881,75.195,-451.172,-50.781,46.387,91.797,26521.786
1652668360.885,-16.602,-341.797,-63.477,-44.922,-5.371,26521.790
1652668360.888,-67.383,-337.402,-59.082,-96.680,-114.258,26521.794
1652668360.892,-8.301,-626.953,-66.895,-34.668,72.266,26521.798
1652668360.896,68.848,-958.008,-69.336,9.277,346.191,26521.802
1652668360.900,22.949,-294.922,-39.551,-39.062,98.145,26521.806
1652668360.904,-67.871,27.832,-34.180,-80.566,-126.465,26521.810
1652668360.906,-51.758,-211.426,-55.664,-58.105,-59.570,26521.812
1652668360.910,39.062,-64.941,-68.359,-7.324,-18.555,26521.815
1652668360.914,31.250,63.965,-59.570,-24.902,-62.988,26521.819
1652668360.918,-64.453,-127.441,-48.340,-72.266,-145.508,26521.823
1652668360.922,-70.801,-361.328,-56.152,-49.316,-114.258,26521.827
1652668360.926,34.180,-397.461,-58.594,-1.465,39.551,26521.831
1652668360.930,76.172,-398.926,-48.340,5.859,103.516,26521.835
1652668360.933,-15.625,-444.824,-54.199,-40.039,20.020,26521.839
1652668360.937,-70.312,-887.207,-62.012,-66.895,208.984,26521.843
1652668360.941,-13.672,-751.953,-67.871,-41.504,221.680,26521.847
1652668360.945,39.551,21.484,-68.848,-32.715,-51.758,26521.851
1652668360.949,-41.016,-127.441,-65.430,-73.242,-85.938,26521.855
1652668360.951,-111.816,-550.781,-72.754,-110.352,-58.105,26521.857
1652668360.955,-59.082,-406.250,-78.125,-94.727,-4.395,26521.861
1652668360.959,17.578,2.441,-70.312,-66.406,-49.805,26521.865
1652668360.963,-39.551,-393.555,-61.523,-103.516,-22.461,26521.868
1652668360.967,-140.625,-824.707,-68.848,-149.902,45.410,26521.872
1652668360.971,-120.117,-519.043,-71.777,-137.695,-56.152,26521.876
1652668360.975,-15.625,-389.160,-73.242,-96.680,6.836,26521.880
1652668360.978,-58.105,-709.961,-79.102,-143.066,169.922,26521.884
1652668360.982,-176.758,-859.863,-58.105,-224.609,152.344,26521.888
1652668360.986,-140.137,-326.660,-34.668,-195.801,-69.336,26521.892
1652668360.990,-41.016,-254.395,-74.707,-101.562,-49.805,26521.896
1652668360.994,-60.547,-635.254,-112.305,-125.488,128.906,26521.900
1652668360.996,-173.340,-585.449,-76.172,-198.242,8.301,26521.914
1652668361.000,-201.660,-277.832,-46.875,-194.336,-152.344,26521.918
1652668361.004,-136.719,-406.738,-47.852,-171.875,-88.867,26521.922
1652668361.008,-87.891,-597.168,-60.547,-145.996,-11.719,26521.926
1652668361.012,-158.203,-467.285,-84.961,-187.012,-18.555,26521.930
1652668361.016,-241.211,-640.137,-86.914,-211.914,-43.945,26521.934
1652668361.020,-190.918,-918.457,-80.566,-169.922,-15.137,26521.938
1652668361.023,-86.914,-1000.000,-77.637,-117.676,190.430,26521.941
1652668361.027,-132.812,-827.148,-83.984,-142.090,129.395,26521.945
1652668361.031,-209.473,-512.695,-104.980,-185.547,-110.840,26521.949
1652668361.035,-157.715,-739.258,-86.426,-126.465,-101.074,26521.953
1652668361.039,-52.734,-849.121,-58.594,-57.617,-41.992,26521.957
1652668361.042,-66.895,-796.875,-58.594,-72.266,-29.785,26521.975
1652668361.046,-179.199,-998.047,-70.801,-130.859,-97.656,26521.978
1652668361.050,-164.062,-1000.000,-69.824,-95.703,-28.320,26521.982
1652668361.054,-61.035,-959.473,-61.523,-17.090,166.504,26521.986
1652668361.058,-32.715,-770.508,-72.266,-19.043,80.566,26521.990
1652668361.062,-160.645,-888.672,-106.445,-74.707,-113.281,26521.994
1652668361.066,-242.676,-1000.000,-125.000,-86.914,0.488,26521.998
1652668361.069,-169.922,-954.102,-86.426,-21.973,153.320,26522.002
1652668361.073,-81.055,-702.637,-52.734,17.090,10.742,26522.006
1652668361.077,-169.922,-695.312,-81.055,-37.109,-89.844,26522.010
1652668361.081,-275.391,-958.008,-88.379,-74.707,-122.559,26522.014
1652668361.085,-221.191,-929.199,-52.734,-22.949,-104.004,26522.018
1652668361.086,-138.672,-733.887,-53.711,27.832,-61.035,26522.020
1652668361.090,-203.125,-821.777,-79.102,-7.324,-89.844,26522.024
1652668361.094,-319.336,-995.605,-80.566,-46.875,-126.465,26522.028
1652668361.098,-304.688,-923.828,-74.219,-6.348,-112.305,26522.032
1652668361.102,-204.590,-938.477,-84.473,34.668,-75.195,26522.036
1652668361.106,-222.656,-1000.000,-70.801,5.859,0.488,26522.040
1652668361.110,-382.812,-1000.000,-69.336,-61.035,217.285,26522.043
1652668361.113,-430.176,-996.582,-82.031,-68.848,184.570,26522.047
1652668361.117,-308.594,-903.809,-72.754,6.348,-85.938,26522.051
1652668361.121,-266.602,-922.363,-73.242,43.945,-26.367,26522.055
1652668361.125,-407.227,-986.328,-77.637,-14.648,-4.395,26522.059
1652668361.129,-486.816,-961.426,-79.590,-24.902,-131.836,26522.063
1652668361.132,-421.387,-997.070,-69.824,30.273,-59.082,26522.051
1652668361.136,-360.840,-1000.000,-69.824,57.617,91.309,26522.055
1652668361.140,-433.594,-993.652,-71.777,20.508,185.547,26522.059
1652668361.144,-492.188,-942.383,-60.059,-8.789,20.508,26522.063
1652668361.148,-450.195,-922.363,-55.176,-0.488,-134.277,26522.067
1652668361.152,-336.426,-981.934,-54.199,31.738,167.480,26522.071
1652668361.156,-358.887,-1000.000,-58.105,4.883,219.727,26522.075
1652668361.159,-506.348,-992.188,-61.035,-46.875,-55.176,26522.079
1652668361.163,-502.930,-1000.000,-58.594,-21.484,-65.918,26522.082
1652668361.167,-376.953,-978.027,-82.520,26.367,36.133,26522.086
1652668361.171,-341.797,-934.082,-92.773,22.461,63.965,26522.090
1652668361.175,-466.309,-992.676,-71.289,-16.602,-70.312,26522.094
1652668361.191,-524.902,-1000.000,-69.824,-27.832,-193.848,26522.097
1652668361.195,-389.648,-1000.000,-60.547,26.367,1.465,26522.101
1652668361.199,-285.645,-967.773,-55.664,50.781,138.184,26522.105
1652668361.203,-417.480,-949.707,-64.453,-13.184,-117.188,26522.108
1652668361.207,-534.668,-1000.000,-59.570,-29.297,-173.340,26522.112
1652668361.211,-414.062,-998.047,-41.504,30.762,-14.648,26522.116
1652668361.215,-297.852,-989.258,-39.062,60.547,113.281,26522.120
1652668361.218,-454.590,-967.285,-116.211,-20.020,8.301,26522.124
1652668361.222,-594.727,-984.863,-130.859,-48.828,-110.352,26522.128
1652668361.226,-562.500,-994.141,-64.453,8.789,52.246,26522.132
1652668361.230,-455.566,-964.844,-67.383,36.133,116.211,26522.136
1652668361.234,-464.844,-992.676,-87.891,5.859,3.906,26522.140
1652668361.236,-609.863,-1000.000,-99.609,-36.621,2.441,26522.142
1652668361.240,-587.891,-994.141,-104.004,-41.016,163.086,26522.146
1652668361.244,-381.348,-900.879,-93.262,-7.324,56.152,26522.149
1652668361.248,-289.551,-812.500,-69.336,20.996,-56.152,26522.153
1652668361.252,-375.000,-905.273,-59.082,-13.184,-21.973,26522.157
1652668361.256,-411.621,-1000.000,-73.730,-36.133,-42.480,26522.161
1652668361.260,-257.324,-979.980,-75.684,-0.977,-18.555,26522.165
1652668361.263,-20.508,-865.723,-82.031,20.020,-64.453,26522.169
1652668361.267,4.883,-937.500,-101.562,-31.738,50.781,26522.173
1652668361.271,-18.555,-1000.000,-112.793,-58.105,123.047,26522.177
1652668361.275,145.996,-871.094,-123.535,-51.270,-84.473,26522.181
1652668361.279,411.621,-809.570,-109.375,-22.461,-98.145,26522.185
1652668361.282,503.906,-932.617,-106.934,-44.434,-73.730,26522.188
1652668361.286,483.887,-982.422,-117.676,-68.848,-95.215,26522.192
1652668361.290,600.586,-975.586,-115.234,-38.086,-108.398,26522.196
1652668361.294,820.312,-895.508,-119.629,-18.555,-75.684,26522.200
1652668361.298,846.191,-951.660,-119.141,-37.109,1.953,26522.204
1652668361.302,745.117,-1000.000,-124.023,-88.379,-38.086,26522.208
1652668361.306,830.078,-994.629,-133.789,-88.867,-63.965,26522.211
1652668361.309,943.848,-987.305,-148.926,-56.641,-20.996,26522.215
1652668361.313,982.422,-1000.000,-159.668,-38.086,148.926,26522.219
1652668361.317,926.270,-880.371,-143.555,-85.938,54.199,26522.223
1652668361.321,817.383,-658.691,-138.184,-131.836,-173.828,26522.227
1652668361.325,874.023,-795.898,-176.270,-115.723,-88.379,26522.231
1652668361.326,986.816,-1000.000,-199.219,-96.191,29.785,26522.232
1652668361.330,905.273,-850.098,-183.594,-124.023,-22.949,26522.236
1652668361.334,774.414,-626.953,-164.551,-152.832,-164.551,26522.240
1652668361.338,813.965,-821.289,-158.203,-122.070,-54.199,26522.244
1652668361.342,921.875,-907.715,-160.645,-68.359,98.633,26522.248
1652668361.346,841.309,-848.145,-154.297,-89.355,1.953,26522.251
1652668361.350,660.645,-981.934,-167.969,-136.719,-99.121,26522.255
1652668361.353,657.227,-1000.000,-178.711,-131.836,13.672,26522.259
1652668361.357,807.617,-979.492,-178.711,-94.238,250.977,26522.263
1652668361.361,826.172,-633.301,-190.918,-112.793,77.148,26522.267
1652668361.365,678.223,-458.496,-193.848,-169.922,-104.492,26522.271
1652668361.369,670.410,-720.215,-180.664,-168.945,-111.328,26522.275
1652668361.371,803.711,-594.238,-176.758,-119.141,-80.566,26522.277
1652668361.375,864.258,-360.840,-197.266,-102.539,-95.703,26522.281
1652668361.379,730.957,-555.176,-214.355,-134.277,-120.117,26522.285
1652668361.383,633.789,-729.492,-205.566,-152.344,-49.805,26522.288
1652668361.387,690.430,-590.820,-197.754,-146.973,-53.711,26522.292
1652668361.391,758.301,-661.621,-195.312,-131.348,-29.785,26522.296
1652668361.395,670.410,-847.656,-185.059,-161.621,33.691,26522.300
1652668361.398,546.387,-985.840,-195.801,-185.059,202.148,26522.304
1652668361.402,605.957,-832.031,-208.008,-141.602,190.430,26522.308
1652668361.406,744.629,-309.082,-189.941,-84.961,-26.855,26522.312
1652668361.410,665.527,-453.613,-182.129,-110.840,20.996,26522.316
1652668361.414,499.512,-801.758,-172.363,-149.414,31.250,26522.320
1652668361.417,489.746,-710.938,-154.785,-136.230,-26.855,26522.336
1652668361.421,570.312,-668.457,-178.711,-125.488,0.488,26522.340
1652668361.425,576.660,-800.293,-209.961,-135.254,55.176,26522.344
1652668361.429,456.543,-812.012,-190.918,-165.527,89.355,26522.348
1652668361.433,392.578,-500.488,-177.734,-183.105,-107.910,26522.352
1652668361.437,480.469,-637.695,-183.594,-153.320,-161.133,26522.356
1652668361.441,559.570,-882.812,-172.852,-117.188,127.441,26522.360
1652668361.444,416.504,-870.605,-176.270,-161.621,198.730,26522.363
1652668361.448,308.594,-437.500,-167.480,-183.594,-57.129,26522.367
1652668361.452,388.184,-261.230,-155.762,-134.766,-152.832,26522.371
1652668361.456,480.957,-490.723,-170.410,-107.910,-38.574,26522.375
1652668361.460,373.047,-591.797,-201.660,-159.180,-2.441,26522.379
1652668361.461,216.797,-358.398,-177.734,-191.895,-165.527,26522.380
1652668361.465,254.883,-321.289,-125.488,-143.555,-204.102,26522.383
1652668361.469,385.254,-659.180,-132.324,-104.980,-57.129,26522.387
1652668361.473,348.145,-542.969,-153.809,-139.160,-29.785,26522.391
1652668361.477,183.105,-261.230,-156.738,-195.801,-175.781,26522.395
1652668361.481,178.223,-586.914,-159.668,-174.316,-159.668,26522.399
1652668361.485,312.500,-808.594,-168.457,-101.074,50.293,26522.403
1652668361.488,314.941,-444.824,-169.922,-114.258,56.152,26522.407
1652668361.492,150.391,-174.316,-145.996,-166.016,-132.812,26522.411
1652668361.496,90.332,-436.035,-154.297,-151.855,-150.391,26522.415
1652668361.500,199.219,-845.215,-184.570,-115.234,26.855,26522.419
1652668361.504,267.090,-434.082,-175.293,-125.488,12.207,26522.423
1652668361.522,151.855,-269.531,-150.391,-173.340,-99.609,26522.427
1652668361.526,50.293,-765.137,-146.973,-170.410,0.488,26522.431
1652668361.530,106.934,-947.754,-174.316,-140.137,196.777,26522.435
1652668361.534,221.680,-374.512,-178.223,-123.535,57.617,26522.439
1652668361.538,167.969,42.969,-164.551,-139.160,-139.648,26522.443
1652668361.542,39.062,-568.848,-150.879,-154.297,89.844,26522.447
1652668361.546,48.828,-892.578,-146.973,-143.066,233.398,26522.451
1652668361.549,168.945,-197.266,-164.062,-104.004,-3.906,26522.455
1652668361.553,148.438,117.676,-157.715,-112.305,-112.305,26522.459
1652668361.557,-7.324,-458.496,-144.043,-157.227,-63.965,26522.463
1652668361.561,-35.156,-532.715,-145.996,-156.738,-56.152,26522.466
1652668361.565,81.543,-67.383,-140.625,-113.281,-171.387,26522.470
1652668361.566,130.371,-70.801,-146.973,-91.797,-166.016,26522.472
1652668361.570,-9.766,-263.672,-154.785,-139.648,-124.512,26522.475
1652668361.574,-81.055,-224.609,-153.809,-149.414,-132.324,26522.479
1652668361.578,26.367,-12.207,-167.969,-106.934,-129.883,26522.483
1652668361.582,115.723,-72.754,-150.391,-87.891,-37.109,26522.487
1652668361.586,1.953,-465.820,-125.488,-143.555,40.039,26522.491
1652668361.590,-93.750,-619.629,-121.094,-161.133,-70.801,26522.495
1652668361.593,-15.625,-443.359,-119.141,-112.305,-103.027,26522.499
1652668361.597,99.121,-210.938,-133.789,-84.961,-57.129,26522.503
1652668361.601,43.457,-737.305,-136.230,-112.793,141.113,26522.507
1652668361.605,-64.941,-750.488,-132.324,-137.695,114.746,26522.511
1652668361.609,-38.086,-79.102,-160.645,-123.535,-143.555,26522.515
1652668361.611,84.473,-297.852,-176.270,-88.379,13.184,26522.530
1652668361.615,85.938,-583.496,-148.438,-105.469,148.438,26522.534
1652668361.619,-53.711,-126.953,-123.047,-162.598,-53.711,26522.538
1652668361.623,-59.570,148.438,-103.027,-140.625,-113.770,26522.541
1652668361.627,57.129,-101.562,-111.328,-83.496,-51.270,26522.545
1652668361.631,116.699,-313.965,-127.930,-71.289,39.062,26522.549
1652668361.635,7.812,-321.289,-119.141,-115.234,3.906,26522.553
1652668361.638,-74.707,-121.094,-126.953,-144.531,-135.254,26522.557
1652668361.642,16.113,-461.426,-150.391,-106.445,29.785,26522.561
1652668361.646,129.395,-971.191,-158.691,-67.871,297.363,26522.565
1652668361.650,44.922,-209.961,-149.414,-120.117,62.988,26522.569
1652668361.654,-64.453,158.203,-130.859,-152.344,-143.066,26522.573
1652668361.656,0.000,-121.582,-125.000,-116.211,-97.656,26522.562
1652668361.660,145.020,104.004,-112.793,-60.059,-24.902,26522.566
1652668361.664,123.535,348.633,-98.633,-68.359,-17.090,26522.569
1652668361.668,-22.461,122.559,-118.164,-119.141,-102.051,26522.573
1652668361.672,-0.977,-169.922,-147.949,-91.797,-96.191,26522.577
1652668361.676,136.719,-221.680,-130.371,-41.016,-20.508,26522.581
1652668361.680,129.883,-157.227,-122.070,-72.266,-8.789,26522.585
1652668361.683,-3.418,-203.613,-125.488,-128.906,-73.730,26522.589
1652668361.687,-40.527,-650.879,-122.070,-133.301,55.664,26522.593
1652668361.691,98.145,-323.730,-116.211,-74.707,79.590,26522.597
1652668361.695,206.055,282.715,-104.980,-32.227,-83.008,26522.601
1652668361.699,85.449,-101.074,-108.887,-78.125,-30.273,26522.605
1652668361.701,1.465,-759.277,-114.746,-90.820,156.738,26522.607
1652668361.705,94.238,-385.254,-108.398,-55.664,96.191,26522.611
1652668361.709,185.547,388.672,-116.699,-53.223,-81.055,26522.614
1652668361.713,110.352,-63.477,-138.672,-88.379,-9.277,26522.618
1652668361.717,4.395,-406.738,-145.020,-116.699,-20.020,26522.622
1652668361.721,36.621,-161.621,-142.090,-104.980,-73.730,26522.626
1652668361.725,177.246,-53.223,-115.723,-60.547,-20.508,26522.630
1652668361.728,178.711,-349.609,-95.215,-47.852,83.008,26522.634
1652668361.732,56.152,-708.984,-81.543,-73.730,106.445,26522.638
1652668361.736,40.527,25.391,-91.309,-87.402,-99.121,26522.642
1652668361.740,163.086,347.168,-112.305,-54.688,-116.211,26522.646
1652668361.744,194.336,143.066,-124.023,-59.570,-28.809,26522.650
1652668361.747,53.223,187.988,-133.301,-118.652,-59.082,26522.664
1652668361.751,7.324,202.637,-141.113,-126.953,-152.344,26522.668
1652668361.755,115.234,-16.113,-145.996,-77.637,-96.191,26522.671
1652668361.759,200.684,-163.086,-122.559,-52.246,56.152,26522.675
1652668361.763,120.605,-7.324,-92.285,-71.777,-30.762,26522.679
1652668361.767,47.852,-54.199,-82.520,-79.102,-172.852,26522.683
1652668361.771,96.191,-209.473,-96.680,-68.848,-67.871,26522.687
1652668361.774,193.848,-639.648,-107.422,-45.410,207.031,26522.691
1652668361.778,141.113,-458.008,-110.840,-67.871,125.488,26522.695
1652668361.782,15.625,285.645,-113.770,-115.234,-180.664,26522.699
1652668361.786,56.152,6.348,-118.164,-89.844,-127.441,26522.703
1652668361.790,193.848,-194.824,-101.074,-33.203,-10.742,26522.707
1652668361.791,179.688,-50.293,-85.449,-52.734,-49.316,26522.697
1652668361.795,43.457,62.012,-81.543,-102.051,-132.324,26522.701
1652668361.799,37.109,-176.270,-82.520,-90.820,-77.148,26522.704
1652668361.803,165.039,-474.609,-105.957,-41.016,63.965,26522.708
1652668361.807,212.402,72.266,-102.539,-34.668,-8.301,26522.712
1652668361.811,83.008,69.824,-94.727,-81.055,-90.820,26522.716
1652668361.815,2.441,-511.230,-118.652,-105.957,100.098,26522.720
1652668361.818,100.586,-936.523,-125.977,-67.871,327.148,26522.724
1652668361.822,205.078,-165.527,-114.746,-45.898,81.055,26522.728
1652668361.826,127.441,307.129,-87.891,-76.172,-129.883,26522.732
1652668361.830,51.758,-129.883,-56.641,-76.172,-164.062,26522.736
1652668361.834,113.770,-27.344,-76.172,-56.152,-121.582,26522.740
1652668361.836,217.285,358.398,-100.586,-38.086,-64.453,26522.756
1652668361.840,166.016,223.145,-82.520,-56.641,-105.469,26522.760
1652668361.844,43.945,-131.348,-83.008,-91.797,-134.766,26522.763
1652668361.848,56.152,-34.668,-101.562,-85.938,-163.086,26522.767
1652668361.852,160.645,191.895,-94.727,-51.270,-85.449,26522.771
1652668361.856,164.551,25.391,-89.844,-48.340,73.242,26522.775
1652668361.860,25.879,-670.898,-105.957,-95.215,203.125,26522.779
1652668361.863,18.066,-685.059,-92.773,-86.426,64.941,26522.783
1652668361.867,163.086,-59.570,-72.266,-28.320,-143.066,26522.787
1652668361.871,210.938,-76.172,-108.398,-25.391,-54.688,26522.791
1652668361.875,54.688,-300.781,-119.141,-90.820,16.602,26522.795
1652668361.879,3.418,-33.203,-74.707,-95.215,-69.336,26522.799
1652668361.881,148.438,20.996,-48.828,-14.160,-130.859,26522.802
1652668361.885,212.402,-328.125,-86.426,-2.930,22.461,26522.805
1652668361.889,84.961,-520.996,-122.559,-82.031,114.258,26522.809
1652668361.893,-20.508,-36.621,-97.656,-112.305,-112.793,26522.813
1652668361.897,57.617,148.926,-82.520,-64.453,-125.000,26522.817
1652668361.901,180.176,-385.742,-77.637,-15.625,216.309,26522.821
1652668361.905,130.371,-573.242,-67.871,-46.387,177.734,26522.825
1652668361.908,13.672,-136.230,-82.031,-89.355,-140.137,26522.829
1652668361.912,34.668,126.465,-97.168,-73.730,-227.051,26522.833
1652668361.916,155.762,-288.574,-94.238,-31.738,-35.156,26522.837
1652668361.920,175.781,-459.961,-99.609,-33.691,75.195,26522.841
1652668361.924,43.945,-108.887,-100.586,-93.750,-51.270,26522.845
1652668361.943,2.930,51.270,-85.449,-97.168,-100.586,26522.849
1652668361.947,137.207,-182.129,-86.914,-28.809,26.855,26522.853
1652668361.951,186.035,-77.637,-95.215,-24.902,59.570,26522.856
1652668361.955,57.129,237.793,-77.637,-79.102,-78.125,26522.860
1652668361.959,-11.230,91.797,-72.266,-87.402,-85.938,26522.864
1652668361.963,83.984,-263.184,-82.520,-38.574,2.441,26522.868
1652668361.967,197.266,-274.902,-76.172,6.348,105.469,26522.872
1652668361.970,95.215,125.000,-100.586,-52.734,22.461,26522.876
1652668361.974,-33.691,37.598,-123.535,-102.539,-94.238,26522.880
1652668361.978,28.809,-610.840,-83.496,-58.105,101.562,26522.884
1652668361.982,163.086,-253.418,-64.453,-8.301,123.535,26522.888
1652668361.986,127.930,372.559,-82.031,-40.039,-48.340,26522.892
1652668361.987,-15.137,-167.969,-78.613,-91.309,-14.648,26522.893
1652668361.991,-10.742,-596.680,-77.148,-63.965,21.973,26522.897
1652668361.995,117.188,-216.797,-88.379,-20.020,-20.020,26522.901
1652668361.999,145.508,185.547,-83.984,-30.762,-25.391,26522.905
1652668362.003,-1.953,-161.133,-91.797,-82.520,-16.113,26522.909
1652668362.007,-66.895,-603.027,-100.098,-104.004,6.348,26522.913
1652668362.011,74.707,-308.594,-79.590,-34.180,38.086,26522.917
1652668362.014,178.223,151.855,-78.125,-6.348,16.113,26522.921
1652668362.018,44.434,-239.258,-86.426,-72.754,58.105,26522.924
1652668362.022,-48.340,-1000.000,-69.824,-83.008,255.371,26522.928
1652668362.026,50.293,-426.758,-51.270,-37.598,91.797,26522.932
1652668362.030,155.273,-32.227,-66.406,-15.137,-67.871,26522.936
1652668362.031,86.914,-145.020,-83.496,-45.410,-57.129,26522.937
1652668362.035,-53.223,60.059,-94.727,-96.191,-63.477,26522.941
1652668362.039,-24.414,204.102,-96.680,-81.543,-84.473,26522.944
1652668362.043,122.559,130.859,-90.332,-19.531,-74.219,26522.948
1652668362.047,107.422,-96.191,-91.309,-31.738,-40.039,26522.952
1652668362.051,-23.926,-240.723,-80.078,-73.242,-26.367,26522.956
1652668362.055,-28.320,-364.258,-59.570,-53.223,-44.434,26522.960
1652668362.058,81.055,-288.086,-79.590,-23.926,-43.457,26522.964
1652668362.062,98.633,-711.914,-104.004,-39.551,212.402,26522.968
1652668362.066,-25.391,-782.715,-85.449,-77.637,199.707,26522.972
1652668362.070,-75.684,58.594,-96.191,-93.750,-103.027,26522.976
1652668362.074,44.922,-48.340,-101.562,-35.156,-67.383,26522.980
1652668362.076,148.438,-499.512,-64.941,5.859,43.457,26522.982
1652668362.080,29.297,-222.656,-66.406,-62.500,-49.316,26522.986
1652668362.084,-69.336,119.629,-57.617,-97.168,-182.617,26522.990
1652668362.088,-2.930,-315.430,-56.641,-56.641,-86.426,26522.994
1652668362.092,118.652,-612.793,-75.195,-8.789,56.152,26522.998
1652668362.096,87.402,-258.301,-68.848,-31.738,-55.176,26523.001
1652668362.100,-46.387,-281.738,-71.289,-77.637,-149.902,26523.005
1652668362.103,-26.855,-666.504,-71.777,-55.664,-16.113,26523.009
1652668362.107,111.328,-875.977,-71.289,-2.930,212.891,26523.013
1652668362.111,96.680,-110.352,-72.754,-33.691,48.828,26523.017
1652668362.115,-51.758,194.824,-66.895,-94.238,-141.113,26523.021
1652668362.119,-55.664,-177.734,-39.551,-57.129,-113.281,26523.025
1652668362.121,77.148,-73.242,-33.203,1.465,-55.664,26523.026
1652668362.125,131.348,277.344,-79.590,-3.906,-47.852,26523.030
1652668362.129,0.488,150.391,-91.309,-43.457,-59.082,26523.034
1652668362.133,-80.566,-146.484,-82.031,-71.289,-105.469,26523.038
1652668362.137,15.625,-29.297,-90.332,-44.922,-83.984,26523.042
1652668362.141,115.234,-109.863,-78.125,-11.719,38.086,26523.046
1652668362.145,43.457,-250.000,-61.523,-23.438,6.348,26523.050
1652668362.148,-64.941,-693.359,-62.500,-47.363,83.984,26523.054
1652668362.152,-32.227,-556.152,-74.219,-47.363,77.637,26523.058
1652668362.156,94.238,258.789,-68.848,-12.207,-88.867,26523.062
1652668362.160,59.082,8.789,-52.246,-27.832,-88.867,26523.066
1652668362.164,-79.590,-335.449,-65.918,-80.078,-39.551,26523.069
1652668362.167,-59.082,-271.484,-80.078,-63.965,-70.312,26523.073
1652668362.171,84.473,-6.348,-67.871,-14.160,-87.402,26523.076
1652668362.175,95.703,-67.871,-69.824,-17.578,26.367,26523.080
1652668362.179,-28.320,-726.074,-83.984,-46.387,133.301,26523.084
1652668362.183,-37.109,-324.707,-69.336,-37.598,-24.902,26523.088
1652668362.187,55.176,44.434,-54.199,-22.461,-48.828,26523.092
1652668362.191,95.703,-440.918,-53.223,-31.738,247.559,26523.096
1652668362.194,-20.020,-726.074,-55.176,-66.406,261.230,26523.100
1652668362.198,-99.609,-99.121,-72.754,-92.773,-58.105,26523.104
1652668362.202,6.836,201.660,-63.477,-41.504,-142.578,26523.108
1652668362.206,126.465,18.066,-53.711,13.184,-83.008,26523.112
1652668362.210,23.926,45.898,-72.266,-40.527,-97.168,26523.116
1652668362.211,-97.656,186.523,-83.496,-82.031,-144.531,26523.145
1652668362.215,-15.137,2.441,-73.242,-27.344,-199.219,26523.149
1652668362.219,111.816,-250.488,-79.590,25.391,-87.402,26523.153
1652668362.223,54.199,-41.016,-96.191,-23.438,-41.992,26523.157
1652668362.227,-74.707,84.473,-83.008,-83.008,-113.281,26523.161
1652668362.231,-62.988,-164.551,-79.590,-66.895,-64.941,26523.165
1652668362.235,60.547,-773.926,-75.195,-9.766,248.047,26523.169
1652668362.238,84.473,-708.984,-62.988,-16.113,276.855,26523.173
1652668362.242,-34.668,114.746,-46.875,-66.406,-67.383,26523.177
1652668362.246,-51.758,-51.758,-48.340,-43.945,-126.465,26523.181
1652668362.250,62.500,-192.383,-74.707,1.953,-61.523,26523.184
1652668362.254,119.141,116.211,-90.332,-4.395,-56.641,26523.188
1652668362.257,0.000,-48.828,-84.961,-58.594,-66.406,26523.174
1652668362.261,-90.332,-491.211,-89.844,-77.637,-17.090,26523.178
1652668362.265,-2.441,-578.613,-88.379,-32.715,72.266,26523.182
1652668362.269,125.000,11.719,-67.871,8.789,-18.555,26523.186
1652668362.273,51.758,244.629,-40.039,-36.133,-119.629,26523.190
1652668362.277,-76.660,-360.352,-29.297,-79.102,62.500,26523.194
1652668362.281,-37.598,-694.336,-43.945,-49.805,113.281,26523.198
1652668362.284,89.844,-234.863,-57.129,-9.277,13.672,26523.202
1652668362.288,85.938,204.590,-80.566,-17.578,-5.859,26523.206
1652668362.292,-57.617,-375.977,-81.055,-63.477,32.715,26523.210
1652668362.296,-69.336,-711.914,-61.035,-55.176,35.645,26523.214
1652668362.300,74.707,129.883,-40.527,-4.883,-72.266,26523.217
1652668362.316,109.863,288.574,-45.410,-5.859,-65.430,26523.222
1652668362.320,-20.020,-299.316,-66.406,-47.363,18.555,26523.226
1652668362.324,-65.430,-328.125,-70.801,-57.617,52.246,26523.229
1652668362.328,58.594,202.148,-70.312,-12.695,-20.508,26523.233
1652668362.332,151.367,238.770,-62.012,21.484,-70.312,26523.237
1652668362.336,25.391,-557.129,-61.035,-27.832,174.316,26523.241
1652668362.340,-74.219,-863.770,-64.941,-55.176,189.453,26523.245
1652668362.343,-1.465,-106.445,-68.359,-31.250,-118.652,26523.249
1652668362.347,90.820,6.836,-63.965,-18.555,-9.766,26523.253
1652668362.351,41.992,-557.617,-43.945,-42.969,154.785,26523.257
1652668362.355,-53.711,-359.375,-37.109,-61.523,-7.324,26523.261
1652668362.359,-32.715,249.512,-60.059,-50.293,-172.852,26523.265
1652668362.361,86.914,-83.008,-63.965,-10.742,53.711,26523.295
1652668362.365,94.727,-394.531,-67.871,-17.090,181.152,26523.299
1652668362.369,-31.250,42.969,-72.754,-61.523,-43.945,26523.303
1652668362.373,-44.922,227.539,-50.781,-51.270,-146.484,26523.307
1652668362.377,80.078,-137.695,-55.176,-0.977,-72.754,26523.311
1652668362.381,114.746,-446.777,-85.449,-8.789,50.293,26523.315
1652668362.385,-16.602,-345.215,-77.637,-67.383,-23.926,26523.319
1652668362.388,-68.848,-63.965,-33.203,-63.965,-215.332,26523.323
1652668362.392,22.949,-431.641,-31.738,-17.090,-58.594,26523.326
1652668362.396,96.191,-721.191,-70.312,-7.324,198.730,26523.330
1652668362.400,10.742,-45.410,-71.289,-53.223,-39.551,26523.334
1652668362.404,-83.496,-125.000,-45.898,-71.777,-107.422,26523.338
1652668362.406,-13.184,-376.953,-66.406,-38.574,-6.348,26523.312
1652668362.410,125.977,-62.988,-84.961,16.113,-28.809,26523.315
1652668362.414,67.871,240.723,-64.453,-12.207,-94.727,26523.319
1652668362.418,-87.891,44.922,-73.730,-75.684,-145.020,26523.323
1652668362.422,-67.871,-363.770,-68.359,-55.664,-63.965,26523.327
1652668362.426,80.078,-365.234,-47.852,-0.977,24.902,26523.331
1652668362.430,97.168,-189.941,-52.734,-4.883,10.254,26523.335
1652668362.433,-41.016,-279.297,-44.922,-51.758,-68.848,26523.339
1652668362.437,-77.148,-524.414,-50.781,-53.711,-59.082,26523.343
1652668362.441,38.086,-160.645,-67.871,-11.719,-49.316,26523.347
1652668362.445,107.910,292.480,-51.758,9.766,-43.457,26523.351
1652668362.449,-16.602,-171.875,-52.734,-34.180,9.766,26523.355
1652668362.451,-96.191,-584.473,-83.008,-52.246,65.918,26523.357
1652668362.455,3.906,-260.254,-81.543,-17.090,4.395,26523.361
1652668362.459,96.680,-34.668,-58.594,-5.859,-4.395,26523.365
1652668362.463,12.207,-315.430,-57.129,-49.805,8.789,26523.368
1652668362.467,-81.543,-942.383,-45.410,-61.523,222.656,26523.372
1652668362.471,-30.273,-817.383,-41.504,-32.227,201.172,26523.376
1652668362.475,103.516,-195.801,-52.734,4.395,-139.648,26523.380
1652668362.478,74.219,-465.820,-60.547,-9.766,-29.785,26523.384
1652668362.482,-54.199,-721.191,-61.523,-41.504,104.980,26523.388
1652668362.486,-41.016,21.973,-76.660,-35.156,-71.777,26523.392
1652668362.490,86.426,349.121,-68.359,16.602,-82.520,26523.396
1652668362.494,110.352,66.406,-46.875,14.648,-51.758,26523.400
1652668362.496,-16.602,50.293,-35.645,-29.297,-122.070,26523.402
1652668362.500,-71.777,248.535,-48.828,-41.016,-135.742,26523.406
1652668362.504,27.344,199.707,-46.875,-9.277,-63.965,26523.409
1652668362.508,98.145,71.777,-45.410,6.348,3.906,26523.413
1652668362.512,-17.090,85.449,-69.336,-42.480,-44.922,26523.417
1652668362.516,-95.703,-113.281,-73.242,-57.617,-91.309,26523.421
1652668362.520,-11.230,-175.293,-82.520,-23.926,-49.805,26523.425
1652668362.523,95.703,-668.945,-62.500,14.648,276.855,26523.429
1652668362.527,35.645,-734.863,-36.621,-16.113,327.148,26523.433
1652668362.531,-62.500,85.449,-31.738,-46.875,-60.059,26523.437
1652668362.535,-41.016,1.465,-44.434,-30.273,-105.957,26523.441
1652668362.539,82.031,-46.875,-36.133,8.301,-7.812,26523.445
1652668362.541,88.379,-16.602,-38.574,6.348,31.250,26523.459
1652668362.545,-60.547,20.020,-74.219,-62.012,-43.945,26523.463
1652668362.549,-76.172,-203.613,-56.641,-59.570,-38.574,26523.467
1652668362.553,52.734,-521.484,-42.969,2.930,91.309,26523.471
1652668362.557,88.867,85.938,-67.871,-5.371,18.066,26523.474
1652668362.561,-52.246,66.406,-91.797,-65.918,-72.266,26523.478
1652668362.565,-102.051,-563.477,-78.613,-67.383,42.969,26523.482
1652668362.568,39.062,-782.227,-36.621,9.766,182.129,26523.486
1652668362.572,135.742,-178.223,-32.227,39.062,96.680,26523.490
1652668362.576,19.043,215.332,-47.363,-24.902,-33.203,26523.494
1652668362.580,-96.191,-233.398,-59.082,-74.219,-34.180,26523.498
1652668362.584,-25.879,-269.531,-82.520,-47.363,-25.391,26523.502
1652668362.586,96.680,292.969,-75.195,-4.883,-51.758,26523.505
1652668362.590,34.180,185.547,-49.316,-30.762,-85.938,26523.509
1652668362.594,-83.008,-127.930,-49.805,-69.824,-152.832,26523.512
1652668362.598,-45.410,2.930,-73.730,-47.852,-104.492,26523.516
1652668362.602,76.660,196.777,-75.195,4.395,-63.965,26523.520
1652668362.606,75.195,-121.094,-46.875,-3.418,-4.883,26523.524
1652668362.610,-34.180,-692.871,-25.879,-30.762,101.562,26523.528
1652668362.613,-54.688,-453.125,-41.992,-34.668,-19.043,26523.532
1652668362.617,45.898,193.848,-65.430,-13.672,-133.301,26523.536
1652668362.621,72.266,50.293,-70.312,-17.090,-40.527,26523.540
1652668362.625,-50.293,-281.738,-81.543,-66.895,-27.832,26523.544
1652668362.629,-91.309,-300.781,-66.406,-56.152,-84.473,26523.548
1652668362.632,17.090,-247.070,-41.992,-6.836,-17.090,26523.554
1652668362.636,114.258,-350.098,-43.945,19.043,73.730,26523.558
1652668362.640,4.883,-766.602,-59.570,-27.832,163.086,26523.562
1652668362.644,-104.492,-405.273,-71.777,-71.777,7.324,26523.566
1652668362.648,-36.133,140.625,-79.102,-45.410,-157.715,26523.570
1652668362.652,112.793,-355.469,-44.922,32.227,89.844,26523.574
1652668362.656,70.312,-790.039,-29.297,10.254,212.402,26523.578
1652668362.659,-70.801,-248.047,-43.945,-64.941,-24.414,26523.582
1652668362.663,-58.105,93.262,-53.223,-52.734,-170.410,26523.585
1652668362.667,76.660,-309.082,-50.781,7.812,-45.410,26523.589
1652668362.671,92.773,-296.387,-58.594,-4.395,-6.836,26523.593
1652668362.675,-51.758,157.715,-69.824,-65.918,-124.023,26523.597
1652668362.691,-78.125,72.266,-73.242,-55.664,-138.672,26523.597
1652668362.695,36.621,-154.785,-80.566,-15.625,-65.430,26523.601
1652668362.699,87.891,-204.590,-65.918,-14.160,28.320,26523.605
1652668362.703,-25.879,11.230,-46.387,-55.176,-57.617,26523.609
1652668362.707,-85.449,44.922,-40.527,-62.500,-142.090,26523.613
1652668362.711,2.930,-585.938,-54.688,-19.531,113.770,26523.617
1652668362.715,95.215,-683.594,-78.613,5.371,201.172,26523.620
1652668362.718,14.648,-24.902,-76.660,-43.945,-78.125,26523.624
1652668362.722,-84.473,-45.898,-53.223,-67.383,-163.574,26523.628
1652668362.726,-21.484,-550.293,-40.039,-23.438,-28.320,26523.632
1652668362.730,98.145,-186.035,-60.547,5.371,-5.859,26523.636
1652668362.734,44.434,216.309,-77.148,-33.203,-132.812,26523.640
1652668362.736,-91.309,-341.309,-62.500,-74.707,-108.398,26523.642
1652668362.740,-77.148,-672.363,-48.340,-47.363,0.977,26523.646
1652668362.744,63.477,-85.938,-39.062,6.348,-74.707,26523.650
1652668362.748,88.379,233.398,-43.457,-2.930,-110.352,26523.653
